select I, 1, 8
! Flux (Jy) Radius (mas)  Theta (deg)  Major FWHM (mas)  Axial ratio   Phi (deg) T \
! Freq (Hz)     SpecIndex
  0.349856    0.0565684     -135.000 
  0.189596     0.796241      64.7223 
 0.0934416    0.0447212     -153.435 
 0.0429787    0.0199999      180.000 
  0.185234     0.778203      64.0935 
 0.0422179    0.0399999      90.0000 
 0.0505952    0.0632457      71.5652 
 0.0423910     0.107703      68.1986 
 0.0685705     0.156205     -129.806 
 0.0664967     0.152315      66.8013 
 0.0630534     0.196977      66.0375 
  0.217402     0.769675      65.4328 
  0.110557     0.200000     -126.870 
 0.0828784     0.223607      63.4349 
 0.0261490     0.751532      64.7989 
 0.0847202     0.268328      63.4349 
 0.0653146     0.250599      61.3895 
 0.0640362     0.216333     -123.690 
 0.0204120     0.228035     -127.875 
 0.0179942     0.244131     -124.992 
 0.0455731     0.501598      66.5014 
 0.0172713     0.913893      66.8014 
  0.127897     0.178885      63.4348 
 0.0327365     0.260768     -122.471 
 0.0306013     0.940213      66.1613 
 0.0444048     0.546260      66.2505 
 0.0287976     0.958540      66.6444 
 0.0149039     0.277849     -120.256 
 0.0143080     0.483322      65.5560 
 0.0397561     0.288444     -123.690 
 0.0605804     0.528015      65.3764 
 0.0511836     0.161245      60.2551 
 0.0241391     0.976934      67.1095 
 0.0120455     0.984886      66.0375 
 0.0613828     0.305287     -121.607 
 0.0871466      1.00319      66.5014 
 0.0904361     0.322490     -119.745 
 0.0141311     0.554617      64.3590 
 0.0477172      1.02157      66.9487 
 0.0273547     0.536656      63.4349 
0.00521026     0.332866     -122.735 
 0.0134682      2.70296      65.5210 
0.00827778     0.170880      69.4439 
0.00451838     0.545894      61.5571 
0.00426392     0.563560      62.5256 
0.00406117      2.69474      65.9080 
0.00406042     0.483736      60.2551 
0.00389221      2.48467      67.7704 
0.00382634     0.528394      60.5241 
0.00376575      2.73942      65.8676 
0.00364698      2.44008      67.8498 
0.00360819     0.555698      59.7436 
0.00686338      2.77597      66.2052 
0.00344527      2.43261      68.2861 
0.00661917     0.538516      58.6713 
0.00326064      2.40308      67.4902 
0.00318319     0.828734      81.6744 
0.00315128      2.79428      66.3706 
0.00308909     0.126491      71.5651 
0.00599519      2.39550      67.9321 
0.00303806     0.956033      52.6506 
0.00300158     0.466476      59.0362 
0.00299701      2.81261      66.5339 
0.00579767     0.340000     -118.072 
0.00292918      1.05849      67.7965 
0.00284353     0.521536      57.5288 
0.00554280      2.83097      66.6951 
0.00277686      2.37697      67.7510 
0.00276488     0.965401      50.0425 
0.00272567     0.823893      84.4278 
0.00752556     0.477074      56.9761 
0.00512094     0.357771     -116.565 
0.00263976      2.43516      70.8210 
0.00259204      1.06977      69.1932 
0.00255760     0.101980      78.6901 
0.00954137      2.84935      66.8542 
0.00494919      2.33735      66.2864 
0.00252407     0.935094      48.4682 
0.00465223     0.843801      84.5597 
 0.0116889    0.0824622      75.9638 
0.00233953      2.47935      72.1497 
0.00233526     0.963327      48.3665 
0.00657789     0.384708     -117.897 
0.00223486      2.30078      65.8858 
0.00597493     0.460434      55.6197 
0.00218582     0.976729      47.4895 
0.00771936      2.47330      72.5907 
0.00210755      2.86775      67.0113 
0.00209202      1.08849      69.5672 
0.00208687     0.488262      55.0080 
0.00206795      2.28254      65.6807 
0.00390959     0.962081      46.6847 
0.00393533      2.86000      67.3801 
0.00544145     0.842140      85.9144 
 0.0129332     0.402492     -116.565 
0.00192991      2.26433      65.4723 
0.00182199      2.88617      67.1663 
0.00181012      2.21964      65.5133 
0.00176487     0.975910      45.8303 
0.00496546      2.87847      67.5333 
0.00169578     0.472017      53.6157 
0.00169539      1.10055      70.9065 
0.00167540      2.31741      64.9831 
0.00593120     0.961665      45.0000 
0.00312065      7.32797      60.2163 
0.00664179     0.411825     -119.055 
0.00159184      2.20145      65.2976 
0.00445438     0.444072      54.1624 
0.00158483      2.49239      72.7283 
0.00295352     0.840952      87.2737 
0.00150497      2.47758      63.6418 
0.00292088      2.89696      67.6844 
0.00146988      1.18929      70.3462 
0.00277825      2.15676      65.3362 
0.00143755      2.48652      73.1683 
0.00141075      7.32060      60.0027 
0.00272598      6.90545      62.7670 
0.00138188      2.51340      63.0272 
0.00263023      2.91548      67.8337 
0.00132341      1.32257      69.6468 
0.00131856      7.37027      60.5830 
0.00251748     0.820244      88.6028 
0.00128770      2.53124      63.2325 
0.00127393     0.538145      48.0128 
0.00126296      6.86073      62.7627 
0.00227986     0.975910      44.1697 
0.00125368      2.48081      73.6105 
0.00123823      7.28892      59.4946 
0.00342832      2.13026      65.6006 
0.00123216    0.0894428      63.4351 
0.00121493      2.88943      68.0513 
0.00230610      1.34134      69.9439 
0.00119548      6.84295      62.6860 
0.00118880      7.43820      61.2297 
0.00118388     0.947629      44.1449 
0.00225525      2.54031      62.8297 
0.00116681     0.468615      50.1944 
0.00116495      6.98370      59.5428 
0.00422592      2.90799      68.1986 
0.00113776     0.704557      96.5198 
0.00113387      2.47524      74.0546 
0.00111940      7.46373      61.5121 
0.00111087      6.94622      59.7436 
0.00110491     0.933809      43.2643 
0.00213220      6.72619      63.1302 
0.00107718     0.608276      43.6678 
0.00107090     0.925419      83.7965 
0.00107211      7.29213      59.1440 
0.00104902      7.48131      61.5851 
0.00103358     0.631506      100.954 
0.00195139      2.44524      74.8271 
0.00101837      7.00357      62.9959 
0.00195821      1.36704      69.4440 
0.000993507      6.99385      59.4015 
0.000992006    0.0600002      90.0000 
0.000988058     0.651153      100.620 
0.000986687      7.51651      61.7302 
0.00271566      2.93401      67.9810 
0.00271792      2.54951      62.4299 
0.000983633     0.622897      42.3974 
0.000969348      6.59203      63.1240 
0.000969032      2.11206      65.3764 
0.000958117     0.973242      80.5377 
0.000955363      7.28527      58.9283 
0.00184236      1.00419      44.1931 
0.000937687      6.96764      63.2143 
0.000933674    0.0800001      90.0000 
0.000928522      6.46829      62.1672 
0.000913588     0.635610      102.724 
0.00177048      7.52471      61.9365 
0.000911521      6.97665      59.3179 
0.000909279     0.594643      42.2737 
0.00241772    0.0824621      104.036 
0.000884778      6.59215      63.9014 
0.000875149      7.01236      63.2157 
0.000872834      2.13860      65.1126 
0.00163897      6.29784      62.3771 
0.000866766     0.947629      82.7250 
0.000864248      4.01542      67.1387 
0.000856254      2.44008      75.2803 
0.000856933     0.480833      45.0000 
0.000851948      7.01430      59.1203 
0.00164096     0.640312      104.470 
0.00164326     0.990354      43.3634 
0.000836397    0.0632457      108.435 
0.000833639      7.34019      58.8221 
0.000822643      6.58337      64.0577 
0.000821467      1.37419      68.6631 
0.000812734      6.27085      62.4542 
0.000809291      6.95865      63.3613 
0.00156213      7.55068      62.2132 
0.000801880      4.02323      66.8762 
0.00142504      1.01607      79.7960 
0.00290009      2.92657      68.3440 
0.000787092      6.98687      59.1769 
0.000786686      2.41570      75.6186 
0.00944260     0.393954     -113.962 
0.00198525      8.67553      60.8941 
0.00149884      2.12047      64.8852 
0.000773039     0.538145      41.9872 
0.00146233      2.55883      62.0329 
0.000755941      6.61937      64.2092 
0.000750894     0.948472      42.4362 
0.000749032      7.32309      58.7410 
0.000743370      1.40014      68.1986 
0.000743365      6.97653      63.4349 
0.00304836     0.659697      104.036 
0.00384241      4.04163      66.9876 
0.000729937      2.61297      73.0907 
0.000729934      6.23468      62.6952 
0.00132811      6.94228      59.1495 
0.000713851      2.34307      76.6755 
0.00138351      7.56762      62.6223 
0.000712523     0.837377      40.1560 
0.000708760    0.0894428      116.565 
0.000702752      6.58401      64.4469 
0.000697888     0.992975      80.7274 
0.000699180     0.481664      41.6336 
0.00134526      6.20774      62.7745 
0.000687419      7.35056      58.6887 
0.000682182      6.96761      63.5820 
0.00163921     0.976729      42.5105 
0.000777634      2.31905      77.0424 
0.000667594      6.96971      59.0926 
0.000663605      1.45836      64.8407 
0.000663371     0.128063      128.660 
0.000655685      6.57541      64.6041 
0.00156285      8.68527      60.7788 
0.00124135      2.12904      64.3978 
0.000645528      2.66301      72.5176 
0.00182588     0.935094      41.5318 
0.000637418     0.396989      40.9144 
0.00248662      2.56827      61.6388 
0.000631704      7.57623      62.8262 
0.00276038      7.36098      58.5557 
0.000628665      6.94081      63.6565 
0.000628426     0.645600      106.189 
0.000617083      6.24388      62.5321 
0.00319857      2.29513      77.4170 
0.000617973     0.100000      53.1301 
0.000609309      2.95256      68.1265 
0.000609593      6.56686      64.7617 
0.000605939      1.51182      62.4180 
0.00108621      5.42232      68.3556 
0.00115463     0.200000      143.130 
0.00114813      6.02332      65.4773 
0.000592206      7.56711      62.9609 
0.000586925      2.68209      72.6460 
0.000579618     0.512250      38.6598 
0.00161281      6.93196      63.8046 
0.000572786      6.43581      61.2048 
0.00128305     0.989949      81.8699 
0.00110990      2.98617      67.5572 
0.00209504      5.39637      68.4746 
0.000558789      7.59373      63.2325 
0.00209305      1.55795      60.8025 
0.000551358      6.88744      59.2645 
0.000549794      6.54990      65.0782 
0.000546911     0.384188      38.6598 
0.00105938      8.65806      60.8297 
0.000533970      6.23541      62.2843 
0.000527117     0.161245      29.7449 
0.00172270      5.40374      68.2773 
0.00100824      2.13776      63.9144 
0.000523899      7.57588      63.1644 
0.000521135      2.70118      72.7725 
0.000518708      8.23468      61.2563 
0.00100477     0.963327      41.6335 
0.000989346      5.97227      66.0960 
0.000506463      6.73029      59.8539 
0.000502317     0.228035      142.125 
0.00120259      2.27130      77.7995 
0.000498020      3.01231      67.3509 
0.000494261      6.25412      61.9598 
0.000493286     0.344093      35.5377 
0.000494226      6.53315      65.3964 
0.000482811      7.58475      63.3674 
0.000478748      2.72624      72.4955 
0.000472981      7.90205      65.3160 
0.000472575     0.244131      145.008 
0.000913048      3.02007      67.0007 
0.000467836      6.62100      60.1049 
0.000465591     0.400000      36.8699 
0.000464368      8.21715      61.1892 
0.000893448     0.679117      103.627 
0.000898736     0.921954      40.6013 
0.00231723      2.57783      61.2476 
0.000456930      6.87843      63.9565 
0.000456291      6.22707      62.0358 
0.00102665      4.06787      66.8384 
0.000452436      7.55791      63.4349 
0.000801018      1.06301      78.0558 
0.000447351      6.52484      65.5560 
0.000447129      6.96287      58.8669 
0.000445662      5.96419      66.2716 
0.000441251     0.256125      141.340 
0.00117728      8.70274      60.8431 
0.000864940      7.40554      58.5851 
0.000824220     0.332866      32.7353 
0.000432253      2.72029      72.8973 
0.000841553      7.90364      65.6400 
0.000428765      2.14663      63.4349 
0.000427561      8.20931      60.9996 
0.00120456      8.52931      65.4782 
0.000424157      6.24593      61.7117 
0.000419540      6.51659      65.7161 
0.00121837      1.56780      60.1645 
0.000806110      5.95617      66.4477 
0.000416227      3.04631      66.8014 
0.000416457     0.196977      23.9625 
0.000413295      6.66837      59.7436 
0.000406403     0.272029      143.973 
0.000402074      2.69533      73.1786 
0.000401249     0.713863      101.310 
0.000400380      7.52215      63.2987 
0.000399501      6.89640      64.0294 
0.000399208      8.19183      60.9318 
0.000397410      6.21884      61.7866 
0.000396910     0.812157      37.9987 
0.000396961      1.03576      79.9920 
0.000770515      3.05424      66.4566 
0.000749108      6.50839      65.8766 
0.000386557      4.10210      66.4346 
0.000384736      6.73323      59.4741 
0.000384919      8.54751      65.5339 
0.000382468      7.92187      65.6997 
0.00148383      2.15564      62.9595 
0.00101731     0.300000      143.130 
0.00139667      1.00499      42.5805 
0.000612915      6.20123      61.6992 
0.000371307      7.68044      59.8295 
0.000371105      8.17435      60.8637 
0.000504626      5.00000      69.3903 
0.000691315     0.698570      103.241 
0.000368043     0.295296      28.3008 
0.000707984      2.71448      73.3008 
0.000364610      7.91366      65.8317 
0.000362791      8.72995      60.7924 
0.00114867      2.22800      78.0849 
0.000648800      4.18120      66.0097 
0.000661710      5.92193      66.7252 
0.000355815      6.67847      59.5954 
0.00120808     0.828010      37.1467 
0.000353940      3.04401      65.9611 
0.000352975      7.46860      63.7780 
0.000873852      5.42973      68.1594 
0.000982813      8.94830      65.1533 
0.000668787      6.86967      64.1064 
0.00120135      6.21073      61.5368 
0.000348207      7.27186      58.4957 
0.000345559     0.404969      32.9052 
0.000344687     0.684105      105.255 
0.00134970      4.96258      69.2277 
0.000343323      8.52103      65.6006 
0.000341625      8.18411      60.7414 
0.000649733      1.01863      43.4089 
0.000338759      3.07044      65.7723 
0.000337666      7.92376      66.0228 
0.000648629      7.81017      59.3634 
0.000485303      7.45402      67.7704 
0.000334355      1.58518      60.5241 
0.000334766      5.94821      66.6243 
0.000333926     0.170880      20.5561 
0.00116471      5.63152      60.8861 
0.000332996      4.27874      65.7112 
0.000329093      6.50025      66.0375 
0.000327607      6.24743      61.3017 
0.00110790      4.98128      69.3093 
0.000325785      6.91829      58.8374 
0.00153644     0.328024      142.431 
0.000534125      5.47430      68.1208 
0.000617433      8.49456      65.6677 
0.00102751      3.05188      61.4195 
0.00112178      2.68403      73.9960 
0.000317526      7.34392      58.4743 
0.000316785      2.14159      78.6901 
0.000663296      7.46161      67.6282 
0.000313930     0.215407      21.8014 
0.000314530      4.50644      66.7346 
0.000312757      7.96844      66.0083 
0.000310853      8.21133      60.6879 
0.000502081      2.18257      62.7305 
0.000309500      7.44183      63.8481 
0.000559313      5.45575      68.0426 
0.000300157     0.733485      101.004 
0.000298808      2.08279      78.3664 
0.000795079      7.47254      67.8284 
0.00108876      2.58751      60.8594 
0.000296927      7.96033      66.1398 
0.000296294     0.241661      24.4440 
0.000296290      4.48807      66.6338 
0.000295333      6.67140      59.3603 
0.000294432      3.08058      66.2641 
0.000290732      7.32688      58.3925 
0.000536946      6.83427      64.3348 
0.000289767      1.36616      72.0955 
0.00205365      7.82038      59.2373 
0.000285928      8.19390      60.6194 
0.00126891      2.16120      78.7940 
0.000764405     0.718053      102.875 
0.000753899      2.70880      73.7060 
0.000281184      8.96645      65.2070 
0.000280569      5.48179      67.9269 
0.000278570      8.46811      65.7352 
0.000756174     0.234094      19.9831 
0.000532440      5.98251      66.3487 
0.000532905      7.97862      66.1979 
0.000773992      3.06946      61.5981 
0.000525495      4.54321      66.9339 
0.000272464      6.65420      59.2725 
0.000269759      6.46579      66.2894 
0.000268889      2.04362      78.1402 
0.000266508      7.29937      58.4439 
0.000266636      9.76166      66.3236 
0.000479546      7.42428      64.1252 
0.000499231      4.20761      65.8716 
0.000264278     0.732393      34.9920 
0.000263957      6.86096      64.2566 
0.000737776      8.99300      65.1448 
0.000259622      9.57549      65.3084 
0.000257181      8.44166      65.8032 
0.000255719      8.18633      60.4287 
0.000255244      1.34104      72.6460 
0.000676807      4.94389      69.1455 
0.000253154      6.90119      58.7515 
0.000250890     0.749667      99.2110 
0.000667050      9.79032      66.5248 
0.000248991      7.48011      67.6865 
0.00120918      7.35440      58.3415 
0.000245790      3.11724      66.5601 
0.000244837     0.260000      22.6199 
0.000720196      5.44830      68.2376 
0.000755760      1.76238      80.8584 
0.000241399      7.40629      64.0577 
0.000238858      7.97057      66.3295 
0.000461459      8.41522      65.8716 
0.000408255      2.18083      78.8962 
0.000237109      9.77198      66.4781 
0.000449884     0.340588      139.764 
0.000459183      8.95064      70.5529 
0.000235509      5.53245      61.0259 
0.000458344      6.04334      65.9798 
0.000416838      1.34715      71.8340 
0.00121240      7.49861      67.7445 
0.000231792      4.58004      67.1299 
0.000650712      2.56031      61.0323 
0.000231272      8.20373      60.4977 
0.000449750      6.82563      64.4861 
0.000228864      9.53079      65.3172 
0.000769036     0.228035      15.2552 
0.000228967     0.689638      106.858 
0.00167769     0.991564      41.7295 
0.000228252      6.63702      59.1843 
0.000224265      3.10696      66.0750 
0.000424534      9.06221      60.6629 
0.000352391      2.12198      78.5842 
0.000220302      6.93908      58.5548 
0.000219878      4.53542      67.1663 
0.00107380      9.01115      65.1982 
0.000762264      3.03434      61.2388 
0.000558749      5.47810      61.1892 
0.000215319      8.61339      60.8162 
0.000214930      6.18362      61.6114 
0.000212848     0.648999      33.6901 
0.000212600      9.51262      65.2669 
0.000598514      8.97617      70.4750 
0.00198258      7.33738      58.2595 
0.000209728      3.28317      67.8097 
0.000209133      8.00722      66.4444 
0.000534803      9.78237      66.6322 
0.000620646      2.70326      74.1128 
0.000207009      4.15480      66.1495 
0.000380356      6.81704      64.6378 
0.000205605      1.37244      71.3010 
0.000554987      6.06976      65.8842 
0.000204171      4.59848      67.2268 
0.000203844      8.36239      66.0097 
0.000203589      6.58219      59.3050 
0.000201307     0.252982      18.4350 
0.000201592      1.94587      77.5351 
0.000199934     0.646220      111.801 
0.000199269      9.48610      65.3261 
0.000198988      7.03864      58.4778 
0.000195331      3.30170      67.9408 
0.000381454      6.84368      64.5583 
0.000520591      2.72800      73.8238 
0.000192980      9.03770      65.1363 
0.000821173      4.61693      67.3229 
0.000191260      7.43360      64.3312 
0.000191188     0.721110      33.6901 
0.000517459      9.76402      66.5857 
0.000188916      8.17885      60.2377 
0.000357708      8.35428      66.1350 
0.000657252      1.96540      77.6609 
0.000499637      2.57006      60.6422 
0.000187488     0.664831      111.161 
0.000186705      5.50527      61.1071 
0.000186260      4.09414      66.6912 
0.000349134      6.15652      61.6866 
0.000356726      9.46792      65.2756 
0.000184152      4.92520      69.0627 
0.000181715      2.24758      78.1901 
0.000181450      8.04390      66.5582 
0.000180441      6.82246      58.5465 
0.000180737      9.07965      60.7247 
0.000450019      8.59593      60.7512 
0.000555799      3.08707      61.7747 
0.000350830      6.05151      65.8068 
0.000464474      2.54283      60.8141 
0.000391527      5.43342      61.1707 
0.000176962      9.02727      70.3206 
0.000634553      1.76567      80.2176 
0.000799162      7.45163      64.3978 
0.000174743      3.17238      66.9911 
0.000893242     0.316228      145.305 
0.000173550     0.665733      32.7352 
0.000335575     0.676757      108.970 
0.00260374      4.07259      57.6367 
0.000171137      1.57785      59.5344 
0.000170343      6.65760      58.8887 
0.000168383      3.01682      61.0561 
0.000168468      9.05285      70.2440 
0.000789079      7.83063      59.1115 
0.000166376      2.51563      60.9896 
0.000266191      5.42380      61.3558 
0.000166351      9.10688      60.6765 
0.000473579      6.83511      64.7096 
0.000541491      3.32024      68.0704 
0.000445884      7.51713      67.8023 
0.000162023      9.44140      65.3351 
0.000296025      1.30292      72.1213 
0.000206148      9.09725      70.2106 
0.000160420      2.00450      77.9052 
0.000159140      6.90498      58.3816 
0.000299286      4.63539      67.4182 
0.000158101      1.60524      59.2811 
0.00238975      3.83208      76.1088 
0.000157942      8.17146      60.0464 
0.000157609      8.37257      66.1904 
0.000306371     0.247386      14.0363 
0.000157337      8.62316      60.7002 
0.000291044      8.79204      70.7407 
0.000154726      7.50621      67.6033 
0.000284406      5.45094      61.2721 
0.000153320      8.07272      66.8014 
0.000153013      2.72250      74.2281 
0.000152222      4.95552      69.4440 
0.000152512     0.737564      102.529 
0.000426960      6.07796      65.7121 
0.000151490     0.710211      32.3474 
0.000479103      9.14846      70.0597 
0.000150031      9.12432      60.7380 
0.000149679      2.13785      62.7158 
0.000390975      9.05585      65.1895 
0.000148121      6.58556      58.9169 
0.000233210      9.45958      65.3856 
0.000525297      9.55617      68.6439 
0.000264547     0.943398      85.1355 
0.000145258     0.626099      116.565 
0.000262032      6.12944      61.7626 
0.000277416      1.61555      58.6713 
0.000143502      6.94953      58.4141 
0.000143193      9.91492      65.1926 
0.000142954      8.76657      70.8210 
0.000739769      6.82659      64.8614 
0.000268531      3.32776      67.7510 
0.000264892      9.16727      70.1023 
0.000140034     0.272029      17.1028 
0.000139868      8.42534      66.0513 
0.000138623      9.15155      60.6900 
0.000136466      8.01242      67.0831 
0.000136016      8.15414      59.9762 
0.000134554      9.88838      65.2491 
0.000133825      9.38691      65.1822 
0.000372969     0.644050      115.769 
0.000133094      9.17409      69.9849 
0.000131941      8.98461      65.2605 
0.000131590      6.59591      58.7681 
0.000131241     0.474131      27.6460 
0.000253016      3.12237      62.1218 
0.000129296      6.06801      65.4623 
0.000250184      9.89820      65.4027 
0.000401004      4.03386      67.2490 
0.000127854      8.10168      67.0429 
0.000320627      4.62774      67.6468 
0.000125883     0.266833      12.9947 
0.000125812      6.91549      58.2405 
0.000125325      8.74769      70.7780 
0.000225913      2.16481      62.4880 
0.000123395      9.42323      65.2843 
0.000341175      1.62604      58.0693 
0.000123452      9.19622      60.7033 
0.000311498      5.61405      60.7868 
0.000448872      6.08621      65.5405 
0.000121111      7.75118      68.6653 
0.000121154      8.03027      59.7949 
0.000120668     0.291204      15.9454 
0.000119311      8.52284      65.9010 
0.000119589      6.52386      58.7953 
0.000563105      4.60925      67.5523 
0.000117819      8.57848      60.6859 
0.000525104     0.332866      147.265 
0.000217230     0.644981      29.7449 
0.000115900      7.40189      67.9399 
0.000379181      5.01175      69.6848 
0.000115005      9.94024      64.8786 
0.000114874      1.21458      72.7585 
0.00149997      3.33419      59.7436 
0.000147755      7.78845      68.7723 
0.000113647      8.19878      66.8748 
0.000389013      8.72880      70.7347 
0.000994885      1.01980      41.8202 
0.000112498      8.06486      59.9379 
0.000111194      9.40506      65.2334 
0.000111012      9.29535      60.6221 
0.000110807      6.94303      58.1871 
0.000111017      9.84693      65.7776 
0.000156449      2.59731      60.4740 
0.000110733     0.438634      24.2278 
0.000110054      3.10471      61.9492 
0.000648323      9.54891      68.7557 
0.000738225     0.421900     -121.430 
0.000108832      7.37585      68.0255 
0.000107370      9.02931      65.2515 
0.000210105      9.46881      60.2401 
0.000107722      6.57218      58.4382 
0.000107147      8.60572      60.6350 
0.000106626      5.37777      68.3964 
0.000918991     0.635295      118.179 
0.000105240     0.286356      12.0948 
0.000105244      5.58684      60.8657 
0.000105394      9.93177      64.9831 
0.000103975      8.13853      67.1527 
0.000364222      2.74722      73.9400 
0.000103297      7.98564      59.7746 
0.000177761      1.98494      77.7843 
0.000183102      9.27935      65.1472 
0.000237581      7.83724      69.0675 
0.000351008     0.860232      91.3322 
0.000101053      9.94875      64.7744 
0.000183301      4.00769      67.4021 
9.99728e-05      6.92604      58.0998 
9.98529e-05      8.74448      65.5452 
9.91890e-05      10.0870      66.6373 
0.000176507      7.13952      69.3312 
0.000344968      2.57992      60.2551 
9.86988e-05      6.11061      62.0930 
9.83248e-05      6.47086      67.0804 
9.83877e-05      6.56567      58.1981 
9.85092e-05      9.47776      65.4360 
9.85405e-05      9.50606      60.0906 
0.000259728     0.456947      23.1986 
9.69790e-05      3.33880      68.1986 
9.70988e-05      6.85320      64.7811 
9.60410e-05      9.07401      65.2425 
0.000171945      1.11571      75.4656 
9.53828e-05      9.22345      60.6558 
9.48658e-05      4.99300      69.6051 
9.50296e-05      7.32382      68.1986 
0.000261822      1.63670      57.4751 
0.000533853      9.12285      70.1349 
0.000351121      6.73573      55.0359 
9.39913e-05      10.1054      66.6823 
9.35431e-05      8.63296      60.5844 
9.27784e-05      9.54337      59.9424 
0.000326892      7.44301      64.5367 
0.000260512      6.07635      65.2907 
9.25377e-05      9.70287      65.6538 
9.21099e-05     0.305941      11.3100 
0.000148832      5.65873      60.8077 
0.000210587      8.03754      59.9899 
9.09791e-05      8.15696      67.2072 
9.07098e-05      6.81812      65.0136 
0.000177297      3.33143      68.5180 
0.000386811     0.662420      28.8866 
0.000255646      10.1237      66.7271 
8.93882e-05      9.34221      65.1906 
0.000278445      9.98311      64.3590 
8.89889e-05      1.14018      74.7449 
8.89795e-05      7.43551      67.7121 
0.000257586      9.55341      59.8385 
0.000938829     0.349857      149.036 
0.000165749      8.93156      65.3862 
8.70181e-05      6.83067      57.7990 
8.74518e-05      6.50772      67.2176 
8.64159e-05      7.82304      69.3411 
8.58026e-05      7.11376      69.4251 
8.54835e-05      8.00292      59.8466 
0.000308479      6.84471      64.9325 
0.000155296      6.09295      62.0050 
8.17423e-05     0.282843      8.13007 
8.10535e-05      2.12941      61.9908 
8.10324e-05      8.65039      60.6495 
0.000300615     0.880000      90.0000 
0.000155447      3.32415      68.8387 
8.00539e-05      9.71288      65.8099 
7.96954e-05      8.20159      67.1867 
0.000150498      8.02022      59.9184 
7.94459e-05      4.98606      69.8205 
0.000122568      7.84176      69.3926 
7.86512e-05      6.85825      57.7467 
0.000153760      9.56347      59.7349 
0.000572227      9.54168      68.8676 
7.78942e-05      6.50000      67.3801 
0.000141840      6.70298      54.8399 
7.77093e-05      9.25069      60.6085 
7.69447e-05      10.1684      66.7126 
7.58159e-05      9.64995      65.7723 
7.55012e-05      7.43443      64.6758 
7.54326e-05      6.06660      65.0402 
0.000481590     0.432666     -123.690 
7.50712e-05      7.83474      69.5295 
0.000208233      9.99178      64.2556 
7.42878e-05      6.71935      54.9381 
7.39828e-05      10.4964      59.6728 
0.00127632     0.680000      28.0725 
7.40153e-05      9.23465      65.1555 
7.38449e-05      7.35731      67.9672 
0.000307334     0.652993      117.350 
7.35640e-05     0.280713      4.08561 
0.000209568      10.1868      66.7571 
7.30218e-05      6.87517      57.8356 
0.000198500      9.60094      59.5889 
0.000136243      2.76644      74.0546 
7.15269e-05      6.51847      67.4477 
7.15164e-05      6.54868      58.1059 
7.17442e-05      8.67763      60.5991 
0.000284142      8.70993      70.6913 
7.12812e-05      8.25399      67.0384 
0.000202783      10.4863      59.7672 
8.79517e-05      7.89098      69.6819 
7.03102e-05      5.03051      69.7639 
0.000136990      6.68664      54.7412 
0.000131796      3.34281      68.9625 
6.97950e-05      9.57357      59.6316 
6.97272e-05      7.38336      67.8816 
0.000368970      1.64754      56.8887 
6.91952e-05     0.280000      0.00000 
6.90308e-05      8.97626      65.3764 
6.87728e-05      4.59077      67.4569 
6.84389e-05      6.05818      65.2116 
6.84792e-05      9.66820      65.8209 
6.82473e-05     0.920869      87.5105 
6.78906e-05      6.91968      57.8717 
6.74742e-05      9.29750      65.1990 
0.000124376      9.23327      60.5476 
0.000215728      7.10676      69.5761 
0.000185300      6.83626      65.0844 
0.000127250      2.56258      60.0333 
6.58844e-05      3.29830      69.0373 
6.60150e-05      9.68644      65.8693 
6.49755e-05      1.14560      73.7798 
0.000125797      7.86529      69.7679 
6.46593e-05      5.00484      69.8995 
0.000124254      6.51082      67.6103 
6.43125e-05      10.0005      64.1524 
0.000560213      10.2051      66.8014 
0.000237060      4.60165      67.7824 
6.39600e-05     0.300666      3.81406 
6.37001e-05      6.09199      62.4254 
6.35019e-05      9.63846      59.4440 
6.33121e-05      6.88584      57.6947 
6.30643e-05      7.42590      64.8153 
0.000690238      10.6104      66.0923 
6.27608e-05      10.6900      60.8933 
6.27331e-05      8.28022      66.9650 
6.24229e-05      8.66021      60.5341 
6.19862e-05      9.25281      65.2076 
6.14721e-05      7.13249      69.4816 
0.000176078      10.4690      59.7120 
6.12789e-05      6.67032      54.6421 
-0.00238045     0.680294      65.6955 
0.000115890      5.02362      69.9779 
6.00911e-05      6.90275      57.7835 
6.04345e-05     0.900222      88.7270 
5.95396e-05      6.04847      64.9602 
5.94336e-05      2.78568      74.1676 
0.000109909      9.94780      64.5168 
0.000169636      6.65402      54.5424 
5.88515e-05     0.280713     -4.08561 
5.87488e-05      7.93357      70.1033 
5.80562e-05      5.37044      68.5948 
0.000211006      8.30646      66.8920 
5.81091e-05      10.7075      60.9454 
0.000256860      1.00658      40.9717 
5.76063e-05      3.31699      69.1609 
5.73824e-05      8.64280      60.4689 
0.000516046     0.444072     -125.838 
5.65102e-05      7.40781      64.7495 
5.64005e-05      2.11178      61.7360 
5.64780e-05      8.92325      65.5029 
5.62331e-05      6.10973      62.5123 
5.58072e-05      6.93034      57.7317 
0.000145826      2.84345      59.1054 
0.000108023      9.64865      59.3418 
5.56131e-05      6.52932      67.6771 
5.51747e-05      7.89597      70.0045 
5.46486e-05      10.7521      60.9557 
5.43605e-05      7.59126      68.0304 
5.42781e-05      4.68943      58.0723 
0.000153468      8.01022      60.0422 
5.41105e-05      9.95642      64.4129 
5.37537e-05      8.62540      60.4034 
5.33094e-05      6.07506      64.8692 
5.31936e-05      10.4517      59.6568 
5.31550e-05      5.22245      69.1358 
0.000457519      6.05211      74.0806 
0.000150928      7.95238      70.1523 
5.26237e-05      7.39091      67.7379 
9.51819e-05      5.46059      61.0881 
0.000227982      9.93922      64.6209 
5.22180e-05      2.53527      60.1991 
0.000188706      6.63774      54.4423 
5.17430e-05      4.61268      68.1063 
0.000130598      4.02616      67.5115 
5.16026e-05      10.7696      61.0074 
5.13573e-05      4.70004      57.8654 
5.13043e-05      7.66551      68.2541 
0.000191192      10.4345      59.6013 
5.11508e-05      6.91344      57.6432 
9.75748e-05      6.11899      62.3461 
5.08283e-05      6.55543      67.5818 
0.000180302      7.38848      58.5043 
0.000125485      2.82418      74.3890 
5.00535e-05      9.58369      59.5284 
5.00540e-05      3.30992      69.4845 
0.000179342      7.98291      60.0949 
4.96476e-05      9.27097      65.2594 
4.93123e-05      4.63124      68.1986 
4.92646e-05      5.29279      68.9625 
4.92244e-05      10.7968      60.9660 
4.91169e-05      8.59065      60.2717 
9.57269e-05      10.1789      66.8605 
4.89344e-05      7.37271      64.9643 
9.12686e-05     0.300666     -3.81406 
4.82586e-05      6.04003      65.1321 
4.81494e-05      6.58155      67.4873 
9.22739e-05      6.89655      57.5543 
0.000135499      4.71699      57.9946 
9.33726e-05      9.66911      59.1379 
8.68342e-05      6.62148      54.3416 
9.26007e-05      4.62385      68.4287 
8.05567e-05      1.75932      81.5014 
4.70075e-05      2.51794      59.9729 
8.83446e-05      7.61730      67.9472 
4.67335e-05      5.55964      60.9454 
0.000249060      10.8143      61.0174 
4.64067e-05      6.82785      65.2366 
4.61480e-05      5.26695      69.0875 
4.58062e-05      3.26546      69.5672 
0.000129357      7.99002      70.2497 
8.54608e-05      7.37241      67.6790 
4.52290e-05      11.0820      63.2962 
0.000120487      9.26052      60.5007 
0.000257879     0.860000      90.0000 
4.51047e-05      2.86063      59.3110 
4.50778e-05      8.57328      60.2054 
4.48929e-05      1.73954      81.4041 
4.43377e-05      7.34613      65.0396 
4.41736e-05      6.60003      67.5538 
4.41418e-05      6.09216      64.5286 
0.000276459      6.60524      54.2405 
8.55573e-05      8.29863      67.0190 
4.33738e-05      8.55593      60.1388 
4.34049e-05      4.64246      68.5194 
4.28744e-05      1.65747      81.6744 
0.000123615      10.4244      59.6961 
7.97432e-05      7.63584      68.0035 
8.35892e-05      5.21536      69.3411 
0.00122663      10.7263      68.7937 
4.25444e-05      2.88201      74.7100 
4.25463e-05      6.09147      64.1080 
0.000120374      8.83652      56.6336 
8.03893e-05      2.49062      60.1410 
0.000151920      11.0999      63.3426 
8.18344e-05      4.63517      68.7495 
0.000111707      9.93066      64.7252 
4.18506e-05      9.67938      59.0362 
0.000185356      7.97120      70.2011 
0.000153883      1.63768      81.5730 
4.04368e-05      6.90730      57.4143 
0.000114916      6.64160      67.1412 
4.03005e-05      2.90131      74.8142 
4.02901e-05      6.11830      62.7649 
0.000150108     0.360555      146.310 
4.02381e-05      9.97447      64.4626 
0.000131096      4.74455      57.9178 
0.000295478     0.840238      91.3639 
7.61549e-05      9.68969      58.9348 
3.91473e-05      10.8318      61.0687 
3.91337e-05      7.95560      60.1479 
3.91131e-05      8.53859      60.0720 
3.90337e-05      2.16601      61.3051 
0.000111266      8.29084      67.1462 
3.87899e-05      6.11794      63.1837 
7.70967e-05     0.978366      40.8554 
3.85826e-05      5.67620      60.9062 
7.12750e-05      8.73542      70.6109 
3.83620e-05      5.28564      69.1648 
3.81947e-05     0.302655     -7.59462 
7.39245e-05      4.64663      69.0687 
0.000109713     0.617738      119.055 
7.38759e-05      10.4316      59.8464 
7.26420e-05      2.93993      75.0184 
3.76863e-05      6.92416      57.5034 
3.75256e-05      2.82631      58.8972 
7.24760e-05      6.12683      63.4349 
7.20910e-05      8.52127      60.0049 
3.70766e-05      8.00025      60.1663 
7.07904e-05      9.53448      68.9797 
3.69155e-05      5.74334      66.8276 
0.000715967      4.53630      73.0830 
5.28888e-05      4.75521      57.7136 
7.00417e-05      7.38003      67.5354 
3.60774e-05      5.23408      69.4183 
0.000102647      7.97295      60.2195 
0.000119740      8.82553      56.7421 
3.53799e-05      3.28420      69.6890 
3.49954e-05      5.64900      60.9848 
3.48885e-05      2.18477      78.3815 
4.55926e-05      6.88401      55.8944 
7.32525e-05      2.80920      58.6865 
3.47861e-05      10.5210      60.7550 
3.44026e-05      7.62837      68.1428 
6.77017e-05      1.61505      82.1709 
3.43719e-05      9.73786      58.6932 
3.41670e-05      10.8415      60.9762 
3.39583e-05      7.42261      58.6656 
3.39634e-05      6.13580      63.2679 
3.39677e-05     0.305941     -11.3099 
3.38591e-05      10.5921      66.0485 
3.38949e-05      5.25985      69.2910 
3.38240e-05      10.3899      59.5848 
3.40705e-05     0.840000      90.0000 
3.33347e-05      2.44598      60.0808 
3.33088e-05     0.388330      145.491 
3.32869e-05      6.77649      65.7800 
3.31907e-05      2.95926      75.1185 
3.31282e-05      8.28309      67.2737 
3.30720e-05      9.98307      57.9338 
3.28900e-05     0.820975      92.7927 
3.27763e-05      10.4389      59.9964 
3.26509e-05      10.8590      61.0274 
0.000443081      5.66353      61.9870 
0.000100479      6.57927      57.0345 
0.000508473      7.86753      69.3076 
0.000508249     0.456070     -127.875 
0.000255047      6.56250      56.9395 
0.000237339      3.43185      68.8187 
7.89450e-05      5.67295      61.8087 
7.64067e-05      3.40599      69.0108 
7.63543e-05      9.10055      65.1809 
0.000302664      6.64048      68.0704 
0.000212658      8.71745      57.8413 
0.000144120     0.288444     -33.6900 
0.000139967      6.54575      56.8440 
0.000242716      9.09217      65.2953 
7.18882e-05      2.79120      73.7726 
7.00465e-05      7.84092      58.9861 
0.000135905     0.468615     -129.806 
0.000134262      4.75395      59.1189 
0.000135960      10.2235      66.8456 
0.000129096      3.39888      69.3256 
6.66582e-05      7.46967      64.4641 
0.000242124      2.81041      73.8866 
0.000350937     0.295296     -28.3008 
7.80125e-05      6.95040      56.2642 
6.36989e-05      7.88624      69.3589 
6.31493e-05      9.96586      64.5663 
0.000116427      5.64588      61.8917 
6.21375e-05      10.8899      65.1293 
6.22570e-05     0.481664     -131.634 
0.000118620      8.72812      57.7302 
6.12651e-05      6.53437      56.3586 
0.000172328      10.2341      66.9925 
0.000149152      6.62193      68.0058 
5.99738e-05      4.88774      67.6326 
5.95615e-05      7.86160      58.7363 
0.000113780      7.87462      69.1714 
5.90318e-05      11.0476      64.3627 
0.000168176     0.495177     -133.363 
0.000160648      4.76424      58.9125 
0.000110411      6.96704      56.3555 
5.69272e-05      3.39187      69.6417 
0.000108386      4.88016      67.8498 
0.000106965      6.54730      54.9506 
5.53404e-05      10.8467      65.3724 
5.48737e-05      7.45367      65.0853 
0.000102742      8.73881      57.6193 
0.000404628      5.87922      73.5995 
5.32145e-05      11.0743      64.3142 
5.30091e-05      2.42916      72.7585 
0.000100780      10.7838      61.5337 
5.15043e-05      7.85593      69.1196 
5.14025e-05      7.87200      58.6118 
0.000144039     0.509117     -135.000 
9.78743e-05      1.48297      79.9025 
9.39208e-05      3.36618      69.8424 
5.00168e-05      7.25253      57.8439 
0.000242270      10.2525      67.0362 
9.37157e-05      2.82963      73.9990 
9.54103e-05     0.313049     -26.5651 
0.000224898      11.1010      64.2659 
4.80979e-05      5.63649      62.0710 
9.12268e-05      7.61078      67.2759 
9.29822e-05      4.87266      68.0676 
0.000131413      6.55881      54.8076 
4.68373e-05      2.37924      73.3930 
8.95833e-05      8.74954      57.5087 
4.61867e-05      7.90496      69.4100 
0.000217166      7.88244      58.4877 
8.82054e-05      10.7933      61.4404 
0.000210836      4.75752      58.5819 
0.000324149     0.960417      31.3730 
4.46502e-05      7.21870      57.6749 
4.38056e-05      8.12507      69.6916 
0.000122375     0.304631     -23.1986 
0.000154397      1.46328      79.7652 
0.000463595     0.523450     -136.548 
0.000119752      5.61883      61.9755 
4.25237e-05      2.60722      60.0916 
7.55478e-05      3.35935      70.1626 
0.000180416      10.7758      61.3895 
9.25481e-05      2.34887      74.1886 
7.73590e-05      4.86522      68.2861 
8.31764e-05      7.01706      56.6270 
0.000110173      2.89510      59.7151 
3.99750e-05      8.73716      59.9135 
7.39345e-05      7.48973      66.7211 
3.91410e-05      8.14383      69.7404 
0.000106636      6.57036      54.6651 
7.33276e-05      8.77109      57.2883 
3.76667e-05      3.83275      68.2541 
3.73577e-05      7.20181      57.5898 
3.68074e-05      7.81857      69.0151 
3.59519e-05      9.93839      64.3632 
6.84130e-05     0.323110     -21.8014 
9.67892e-05      2.60000      59.4898 
0.00102662     0.538145     -138.013 
5.85538e-05      8.18828      69.7060 
5.77009e-05      7.00037      56.5369 
0.000212898      11.1097      64.1730 
0.000277747      4.83396      69.9156 
0.000148241     0.495177     -46.6366 
-0.000445865     0.690796      67.8906 
3.32495e-05      9.49210      69.6559 
3.25332e-05      8.78191      57.1785 
0.000130964      1.49933      80.7890 
8.55767e-05      5.60946      62.1558 
3.16418e-05      9.02095      65.3668 
3.16040e-05      2.84345      74.4975 
3.14051e-05      6.14244      60.7642 
3.11886e-05      8.75447      59.9791 
5.32559e-05      2.29965      74.8760 
5.84293e-05      8.16260      69.7890 
8.68258e-05      6.58194      54.5230 
8.29445e-05      2.91239      59.9135 
3.06968e-05      1.53584      81.7644 
3.04847e-05      7.71751      68.0883 
3.01974e-05      7.16807      57.4185 
0.000308329     0.509117     -45.0000 
0.000107292      8.79277      57.0690 
0.000104350      10.8029      61.3472 
2.93018e-05     0.316228     -18.4349 
8.56668e-05      1.69434      82.5394 
2.91344e-05      9.48517      69.7692 
2.89106e-05      7.79990      68.9625 
0.000135865     0.943398      32.0054 
6.11797e-05      9.92905      64.2092 
7.79801e-05      2.27517      75.2308 
5.43727e-05      10.2709      67.0798 
2.84027e-05      3.35261      70.4841 
2.79962e-05      5.60014      62.3368 
2.76411e-05      7.48184      66.8617 
-0.000244057     0.698570      66.3706 
2.71213e-05      2.61021      59.1115 
0.000101466     0.466905      136.736 
0.000120327      8.76183      60.1578 
2.67264e-05      10.8036      65.6175 
9.98068e-05      1.73666      82.0565 
2.65689e-05      7.81143      69.1521 
5.87177e-05      9.47827      69.8826 
2.59128e-05      6.58109      68.4249 
0.000111914      4.75096      58.2503 
2.54893e-05      10.3850      60.9668 
7.16482e-05      2.58279      59.2645 
8.95656e-05      6.59357      54.3815 
4.61153e-05      5.55820      65.5560 
2.49534e-05      7.76981      68.7190 
0.000138522      7.89291      58.3640 
0.000115893     0.926499      32.6609 
2.44911e-05      9.92036      64.3132 
2.41315e-05      9.47141      69.9962 
-0.000424484     0.487032     -160.821 
0.000151095      10.2631      67.1826 
0.000141350      1.75647      82.1467 
4.51317e-05      7.45560      66.9427 
2.31364e-05     0.468615      140.194 
4.45362e-05     0.456070      142.125 
9.62462e-05      5.58244      62.2415 
4.33138e-05      8.80366      56.9598 
-0.000112675      1.00439      102.653 
4.08376e-05      10.3675      60.9132 
2.17325e-05      10.8118      65.5210 
6.23929e-05      2.56562      59.0362 
2.14512e-05      9.46459      70.1100 
6.26311e-05     0.444072      144.162 
5.96276e-05      10.8301      61.3051 
2.10002e-05      9.31223      72.8882 
-0.000233821      5.09608      52.8153 
2.07946e-05      8.94975      65.4395 
7.75118e-05     0.909725      33.3407 
2.04513e-05      2.29452      75.3581 
9.11021e-05      7.43720      66.8823 
3.84303e-05      8.81458      56.8508 
3.95556e-05     0.432666      146.310 
0.000157332      9.30636      73.0059 
3.43382e-05      6.98370      56.4465 
-2.03880e-05     0.468188     -160.017 
-0.000279329     0.475395     -157.751 
1.93286e-05      2.55539      59.4208 
1.90777e-05      8.13693      69.8725 
1.90647e-05     0.449444      147.724 
-0.000155452      8.96879      72.2115 
1.87098e-05      2.31897      75.0049 
7.23083e-05     0.439090      149.931 
-0.000136314      9.17322      58.0079 
1.85283e-05      7.87223      69.6314 
3.55996e-05      2.53819      59.1911 
-8.39113e-05      7.44497      72.4899 
-0.000281036     0.456947     -156.801 
3.42885e-05      10.3500      60.8594 
9.92097e-05     0.893084      34.0459 
4.93135e-05      10.8476      61.3558 
6.66606e-05      4.76151      58.0456 
1.73351e-05      7.92851      69.7823 
-0.000130553     0.662118      64.9831 
9.89591e-05     0.429418      152.241 
-1.70088e-05      5.96688      69.8036 
-1.69716e-05      5.96000      69.9840 
1.68168e-05      5.56651      65.3686 
-8.09673e-05      1.31590      43.1524 
1.67802e-05      2.52800      59.5804 
-9.66660e-05      5.94121      69.9180 
6.49155e-05      5.89841      73.6543 
1.63468e-05      7.90974      69.7322 
3.18144e-05      2.51078      59.3493 
3.19395e-05      7.42937      67.0242 
-4.80238e-05      4.21905      70.6202 
-4.72624e-05      10.4564      64.0231 
1.61859e-05      7.92162      69.9180 
1.59224e-05      10.3326      60.8054 
1.59453e-05      1.51605      59.0362 
1.55625e-05      5.58469      65.4542 
1.54959e-05      4.85275      69.9967 
1.55335e-05     0.420476      154.654 
0.000843621     0.362215     -96.3402 
6.58751e-05      8.04331      56.6656 
0.000288720     0.364966     -99.4623 
3.27805e-05      10.7555      68.3964 
6.18807e-05      10.7482      68.4956 
6.00042e-05      7.15122      57.3322 
3.00175e-05      8.05432      56.5467 
2.90601e-05      10.7409      68.5948 
5.37569e-05      8.06536      56.4281 
2.79779e-05      10.7336      68.6942 
2.67824e-05      7.13440      57.2455 
-0.000401914      1.27562      41.1859 
0.000268991      8.07643      56.3099 
2.30092e-05      7.10079      57.0708 
0.000149383      9.37303      71.7197 
2.11652e-05      10.8774      66.8291 
2.04518e-05      7.06725      56.8946 
1.95117e-05     0.360555     -93.1798 
1.88928e-05      10.9414      66.0588 
-0.000252851     0.873155      110.095 
3.63239e-05      2.79213      58.4732 
1.81930e-05      7.05050      56.8058 
3.46590e-05      2.77510      58.2572 
-0.000223992      1.26254      40.5029 
1.68279e-05      10.9823      65.5820 
4.88491e-05      2.75812      58.0387 
8.29408e-05      9.36677      71.8359 
0.000193709     0.553173     -40.6013 
1.59081e-05     0.368782     -102.529 
3.08789e-05      2.74117      57.8174 
1.55683e-05      10.9989      65.3922 
1.56677e-05     0.373631     -105.524 
4.40088e-05     0.379473     -108.435 
2.95976e-05      2.72426      57.5933 
1.46352e-05      11.0073      65.2976 
4.17745e-05      2.70740      57.3665 
2.77371e-05     0.386264     -111.250 
2.60666e-05      2.69058      57.1368 
1.31893e-05      11.0494      64.8265 
4.93443e-05      2.67380      56.9043 
1.22519e-05      11.0580      64.7327 
1.21608e-05      6.91717      56.0802 
3.36839e-05      8.35110      66.8735 
-7.68500e-05      1.24964      39.8056 
3.45031e-05      2.65707      56.6688 
-1.16196e-05     0.360555      109.440 
2.16024e-05      5.04115      70.7743 
1.11564e-05      11.0837      64.4522 
-1.12035e-05     0.335261      107.354 
-2.21276e-05     0.316228      108.435 
3.21759e-05      2.64038      56.4303 
1.08276e-05      9.36056      71.9522 
-2.15077e-05     0.291204      105.945 
-1.07826e-05     0.297321      109.654 
-3.13043e-05     0.272029      107.103 
3.03408e-05      2.62374      56.1888 
1.00330e-05      9.35438      72.0687 
-2.02412e-05     0.252982      108.435 
9.89648e-06      6.46792      55.9660 
-1.98135e-05      3.90512      66.4546 
0.000802985     0.866487     -108.853 
-0.000465430      6.85790     -6.02650 
-0.000644116     0.295296     -118.301 
0.000423016      14.6415      67.4283 
-0.000251639      3.87340     -54.6687 
5.86815e-05      18.6439      47.5651 
0.000109987      2.65601     -127.042 
0.000156006      15.8319      63.9205 
5.69762e-05      11.4211      52.3274 
0.000158488      5.30634      18.2301 
-0.000107533      1.63976      30.0049 
-0.000397350      11.6529      9.88266 
0.000108786     0.854401     -110.556 
0.000107368      13.3967     -10.3201 
0.000194352      18.6426      47.4782 
-9.69923e-05      3.40476     -38.0816 
-0.000187779      5.15891     -41.2277 
0.000230564      11.4089      52.4069 
0.000102647      5.02872     -114.934 
0.000186210      10.0839      91.5911 
0.000146683      10.5528      15.2742 
-0.000145798      5.87227      140.944 
-9.70859e-05      3.86186     -54.9107 
-0.000170422      15.6298     -16.5799 
0.000437819      4.49942      46.8012 
0.000221559      4.01622      17.9838 
0.000189243     0.824621     -112.834 
-9.61104e-05      9.94581     -1.95905 
-0.000167448      3.39246     -37.8157 
-0.000137776      15.5607      32.9343 
0.000140370      13.4164     -10.3048 
0.000216101      12.3511     -14.8238 
-4.86044e-05      8.83615      8.46023 
-0.000136755      3.27713      29.2244 
-9.22942e-05      6.77658     -133.445 
0.000315749      7.67208      129.500 
0.000240080      14.0313      46.0395 
-0.000169526      4.60017     -151.429 
-0.000359978      12.7925     -12.2762 
0.000129192      5.03718     -115.141 
0.000202043      7.56225      40.3876 
0.000124522      10.7369      21.6429 
4.60928e-05      11.3738      35.8422 
-9.01931e-05      8.87572      8.42224 
0.000231142      5.32534      18.1628 
0.000187365      2.67200     -126.784 
-4.49779e-05      6.05406      109.692 
-8.27756e-05      5.04008      158.832 
4.46152e-05      7.68401      53.0406 
-4.44962e-05      10.9972      104.643 
-0.000124600      6.83801     -6.04409 
-8.44996e-05      11.2246     -13.8134 
-0.000162004      17.4518      31.1214 
-4.37095e-05      5.07720      134.521 
0.000154088      8.94221      49.8991 
-0.000121079      10.3363      86.7833 
4.27992e-05      12.6362      48.3363 
0.000120015      13.0229      63.3562 
-0.000219464      3.39600     -74.9816 
-8.25693e-05      6.04202      109.934 
-4.22471e-05      2.95195     -152.567 
4.22797e-05      14.0040     -14.1355 
0.000117700      15.8052      63.9537 
4.20776e-05      12.9889      73.9092 
-0.000208430      1.86526     -4.30447 
4.20638e-05     0.941488     -102.265 
-4.17299e-05      8.89550      8.40337 
4.17047e-05      7.69605      52.9216 
-0.000156034      10.9921      104.542 
-0.000252905      6.79111     -133.329 
-8.03806e-05      16.5384      26.9679 
4.13699e-05      3.25779      51.2303 
0.000150023      13.1143     -21.2822 
0.000145286      13.1782      35.1131 
-7.82625e-05      9.92516     -1.84761 
0.000220467      5.23717     -155.882 
0.000144083      13.4003     -10.4043 
-7.83576e-05      3.56786      160.346 
0.000106352      6.93619     -36.4404 
7.74007e-05      12.6229      48.4042 
-0.000110381      5.85676      140.821 
-0.000178844      5.70659      38.5971 
7.49775e-05      7.71202      53.0112 
0.000106176      6.69104      133.668 
-0.000114003      5.06320      134.360 
0.000149920     0.796241     -115.278 
-0.000111953      1.35248     -156.468 
3.96007e-05      18.6574      47.5197 
-7.66319e-05      1.88521     -4.25885 
7.67829e-05      12.3317     -14.8476 
-7.65322e-05      11.3526      48.7856 
-7.67659e-05      8.85594      8.44119 
7.57090e-05      3.25484      50.7354 
-7.64904e-05      3.29460      29.0546 
7.32061e-05      11.3694      35.9829 
0.000175643      13.7207      81.7872 
-3.86076e-05      6.56987      93.1411 
7.41038e-05      10.0834      91.4775 
-7.38191e-05      14.1007     0.568875 
-0.000108527      12.3559     -23.1621 
3.81537e-05      10.5335      15.3028 
0.000106946      11.1465     -24.0356 
-0.000171249      15.5716      32.9961 
0.000172726      16.1325      36.4295 
3.74270e-05      3.14770     -49.1223 
-7.25517e-05      8.16208      43.7093 
3.69188e-05      9.43678     -19.0494 
3.67878e-05      9.25092      103.375 
-3.67546e-05      2.93421     -152.387 
-3.66296e-05      8.84771      14.1305 
0.000105215      14.3560      28.6359 
0.000170965      3.14986     -49.6355 
-7.03541e-05      5.16085     -40.9144 
3.64174e-05      18.6709      47.4745 
-3.62966e-05      14.0027      108.228 
-6.96553e-05      6.06083      109.870 
-0.000135318      11.3376      48.7190 
-3.59598e-05      19.4833      42.1708 
6.98363e-05      12.6096      48.4721 
6.85027e-05      7.92162     -38.0272 
6.91061e-05      12.9944      73.8245 
6.97374e-05      6.45879      105.629 
-0.000100723      6.57100      93.3153 
3.55632e-05      6.18294      81.8175 
-6.84861e-05      16.5205      26.9993 
-0.000100487      4.61775     -151.548 
-6.88081e-05      17.4414      31.0652 
9.81497e-05      9.99460      114.975 
-3.51216e-05      6.57526     -5.93603 
6.59592e-05      13.0139      63.4349 
-3.49854e-05      11.2294     -13.9125 
6.68355e-05      11.3931      52.3456 
-0.000100471      6.59078      44.2623 
3.47248e-05      12.5478      22.8868 
3.45045e-05      9.43027     -18.9345 
9.79028e-05      11.7887      13.1403 
6.72162e-05      8.64227      4.11396 
-3.44385e-05      8.95779      8.47384 
-6.66021e-05      3.26741      28.9183 
-6.65031e-05      19.4968      42.2144 
-6.57873e-05      14.0217      108.202 
6.72263e-05      1.33821      9.46232 
-6.59636e-05      13.7677      33.5054 
-6.61624e-05      10.9871      104.441 
3.36292e-05      3.99720      18.0723 
6.54443e-05      6.18582      81.6341 
6.48525e-05      8.99978      100.111 
6.54502e-05      13.9992     -14.0561 
6.47040e-05      15.8231      63.9855 
3.34396e-05      3.26754      50.4638 
-3.32856e-05      8.69473      8.46560 
-3.33246e-05      9.34420     -15.1368 
-3.33770e-05      6.12839     -50.9606 
3.31964e-05      7.28222      91.4164 
-6.40944e-05      6.51352     -5.81563 
3.30672e-05      10.0829      91.3639 
6.44521e-05      15.7325      19.6097 
-6.48499e-05      9.22703      87.7640 
3.29947e-05      14.6078      67.5431 
6.42057e-05      10.5653      82.7136 
6.42108e-05      13.2892      97.3496 
3.28736e-05      12.5216      22.8381 
3.28920e-05      2.26592     -110.674 
-6.41084e-05      3.05634     -120.256 
-6.36738e-05      1.33417     -156.125 
3.28129e-05      17.3488      37.4115 
6.35801e-05      5.04571     -115.346 
-3.27671e-05      13.2570      104.057 
-3.26426e-05      9.90517     -1.85134 
-6.38342e-05      19.4359      43.7492 
6.32539e-05      18.6844      47.4293 
6.35953e-05      6.43416      105.505 
3.24808e-05      10.7184      21.6823 
3.23054e-05      14.4742      64.4618 
-6.32188e-05      5.65353     -119.921 
3.21997e-05      11.1524     -5.55723 
-3.22304e-05      3.39087     -75.3080 
-3.21523e-05      5.12831      148.231 
-3.20966e-05      8.17655      43.6125 
-3.18802e-05      14.1207     0.568069 
-3.18192e-05      12.5017     -8.00048 
-3.17105e-05      12.2325      109.087 
3.16791e-05      7.54703      40.4860 
3.16650e-05      12.5947      48.4118 
-3.16003e-05      5.06360      134.040 
3.15290e-05      12.6651      70.2488 
3.15380e-05      1.18727     -32.6192 
-3.16264e-05      6.13139     -51.2234 
-3.15213e-05      2.32964     -15.9454 
3.14075e-05      3.98447      18.4350 
-3.13896e-05      8.67495      8.48504 
-3.13702e-05      3.58670      160.454 
-3.13043e-05      6.51966      140.352 
3.10446e-05     0.778203     -115.907 
3.09464e-05      7.23306     -13.2677 
3.07788e-05      5.21893     -155.792 
3.11338e-05      1.33507      8.61566 
-3.06811e-05      10.0033      103.175 
0.000385012      9.15117     -148.950 
0.000153123      8.95589     -144.819 
0.000143127      19.3183     -148.548 
0.000191676      6.36892      147.308 
0.000146016      10.4950      146.189 
0.000186756      17.1879     -155.821 
-0.000141733      14.3205     -90.4801 
-0.000138120      15.5850     -109.179 
-0.000137040      5.96215     -65.8424 
0.000137295      17.6277      165.680 
0.000135959      20.0995      18.3268 
-9.06826e-05      13.4117     -148.538 
-9.10109e-05      7.36565     -171.254 
0.000178040      10.0231     -164.965 
9.19304e-05      14.9002     -58.6142 
-9.14847e-05      9.62638      162.092 
9.08108e-05      20.3020     -146.247 
-0.000132890      16.2965     -153.309 
8.96806e-05      10.8635     -46.1935 
-4.66366e-05      5.84055     -179.215 
-0.000131718      11.5056     -73.6442 
4.61260e-05      19.0227     -121.150 
-8.92594e-05      19.4815    -0.705867 
8.80896e-05      15.7526     -149.984 
4.56785e-05      21.1792     -127.865 
8.80862e-05      21.7374     -119.065 
8.78128e-05      10.9338     -111.685 
-8.77744e-05      13.1522     -36.5911 
-8.61056e-05      13.2755     -129.253 
4.46895e-05      21.9690     -145.384 
8.64355e-05      8.97900     -144.611 
-8.75913e-05      8.81971     -152.738 
4.42772e-05      16.2604     -131.809 
-8.53368e-05      12.1549     -35.6254 
4.36372e-05      14.0824     -152.052 
4.35634e-05      19.9767     -127.352 
-4.32695e-05      18.1727     -177.856 
4.31835e-05      9.22085     -98.4816 
-4.31272e-05      19.5366     -143.576 
-4.29293e-05      5.80055     -179.210 
4.29815e-05      14.0710     -120.210 
-4.26129e-05      19.1407     -26.5651 
4.24796e-05      15.2455     -107.246 
4.22182e-05      14.0223      174.598 
-4.21101e-05      19.8027      76.8059 
4.17968e-05      5.34655     -74.8201 
-4.15354e-05      9.71465     -149.845 
-4.14195e-05      23.6324     -32.9100 
4.13518e-05      13.1102      156.251 
-4.12836e-05      17.8927     -7.96707 

select Q, 1, 8
! Flux (Jy) Radius (mas)  Theta (deg)  Major FWHM (mas)  Axial ratio   Phi (deg) T \
! Freq (Hz)     SpecIndex
0.00175506      2.83746      68.4986 
0.000753503      2.47935      72.1497 
0.000993403      2.44131      71.8619 
0.00205614      2.87472      68.7908 
0.000756136      2.40333      71.5651 
0.000128669      2.34094      70.0169 
0.000122522      2.26592      69.3256 
0.000321546      2.19126      68.5870 
0.000619273      1.24964      39.8056 
-0.000541254      6.67077      67.4330 
0.000350263      1.21918      41.0091 
0.000396064      2.13953      69.1932 
-0.000326468      7.69259      62.7687 
0.000232358      2.51746      72.4287 
-0.000230738      6.61441      57.8477 
-0.000370747      7.60126      59.6568 
7.94919e-05      1.55332      55.4915 
-7.75644e-05      6.56804      65.1517 
0.000731763      10.6795      63.5309 
-7.55596e-05      9.00649      71.0822 
7.48081e-05      2.52254      62.6223 
-0.000433305      9.89553      64.8852 
0.000361204      1.58644      56.3099 
-0.000522251      9.01953      70.8419 
-0.000133321      6.54877      64.6871 
6.95664e-05      2.08806      69.8293 
6.89594e-05      2.57992      60.2551 
-6.83558e-05      6.65552      67.7510 
-0.000187290      5.04777      70.5600 
-0.000331968      4.96145      60.5416 
-6.63768e-05      5.63603      56.8738 
-0.000124378      5.93943      62.7447 
0.000123716      2.56031      61.0323 
-0.000220342      7.72818      62.9044 
6.30367e-05      2.50567      73.3008 
0.000163687      1.09836      79.5085 
-6.14351e-05      6.73439      56.8763 
0.000169929      2.07461      70.8664 
-0.000118825      5.60257      56.6503 
-0.000163902      6.67760      68.1986 
-0.000203331      8.09938      57.0948 
5.66168e-05      2.46739      73.0339 
-5.52803e-05      6.51263      64.5367 
0.000105836      2.64151      57.9946 
-5.42733e-05      6.75633      56.5922 
9.92008e-05      2.31102      66.5410 
-0.000195449      5.08551      70.7100 
-0.000148749      5.58068      56.9933 
-9.85751e-05      5.97501      62.9203 
-0.000152192      9.89367      64.3673 
-0.000178007      7.08994      57.2065 
-5.02269e-05      6.44050      64.2307 
0.000111972      2.49447      74.1808 
4.87860e-05      2.25850      67.0679 
4.73730e-05      2.01157      72.6460 
4.66118e-05      2.66293      57.2648 
9.12656e-05      9.58081      60.7595 
4.61432e-05     0.480000      180.000 
-4.55766e-05      4.03604      70.3080 
-4.44078e-05      5.30011      65.9497 
-4.44023e-05      8.35426      62.9442 
0.000419295      2.79428      66.3706 
0.000245596      2.47386      67.1663 
0.000344595      2.84703      65.9558 
0.000482489      2.42157      67.6713 
0.000192761      2.88361      66.2796 
0.000554742      2.89993      65.5560 
-8.29642e-05      6.72631      63.8921 
-0.000218043      6.42358      62.1584 
0.000342318      2.38462      67.3062 
-0.000321473      5.19892      71.1468 
-0.000145667      6.76225      64.0412 
-6.84060e-05      6.40500      62.4748 
-6.43559e-05      5.94589      66.1941 
-6.11782e-05      6.79823      64.1888 
-0.000163073      7.76371      63.6990 
-0.000161305      5.57896      72.4744 
-0.000109056      5.16109      71.0033 
-0.000106905      6.40712      61.6750 
5.54279e-05      2.36947      68.1986 
-5.52141e-05      5.89318      66.3929 
-5.25416e-05      6.81704      64.6378 
5.24313e-05      2.25175      77.6920 
-5.12092e-05      7.20100      66.4253 
5.06859e-05      2.91671      64.8407 
0.000370201     0.400000      90.0000 
0.000165334      2.28281      78.8870 
4.77808e-05      2.40033      66.4253 
-8.67773e-05      5.12328      70.8577 
4.67316e-05      2.88943      68.0513 
-4.65750e-05      6.24679      65.4042 
-0.000157923      7.79959      63.8292 
-0.000123140      5.61712      72.5973 
-8.36111e-05      7.00651      66.8014 
0.000252419      3.00719      61.3895 
8.01211e-05      2.41661      65.5560 
-8.05642e-05      6.42620      61.3611 
-7.70642e-05      5.85655      66.2362 
-4.18530e-05      8.24514      68.6631 
7.81806e-05      2.87138      71.3126 
4.13447e-05     0.233238     -59.0362 
0.000127647      1.74264      80.7539 
0.000264361     0.256125     -51.3402 
-0.000103052      8.23067      68.9225 
-3.59546e-05      5.01007      70.4077 
-3.43748e-05      6.28318      65.5560 
-9.13843e-05      5.65530      72.7185 
3.30101e-05      2.38025      65.1576 
-3.28648e-05      4.89718      69.9369 
-3.27675e-05      8.19336      68.8219 
-5.89572e-05      6.41049      60.8759 
-3.16823e-05      6.96976      66.6719 
3.14917e-05      2.84675      72.8381 
-7.37242e-05      5.23679      71.2883 
-8.42807e-05      8.48009      64.2810 
5.35699e-05      2.39733      64.2900 
-0.000127502      4.85963      69.7751 
-7.83669e-05      7.81731      63.5661 
5.52053e-05      3.25281      73.5707 
4.83583e-05      2.32207      79.0772 
-7.11110e-05      7.12359      57.3808 
-5.01192e-05      5.27469      71.4277 
-7.42629e-05      8.01529      68.9420 
2.71800e-05      2.83521      73.6105 
-0.000119562      4.51717      73.0092 
-7.09257e-05      7.96723      57.5067 
-2.56673e-05      8.26801      69.0222 
2.55346e-05      1.74951      79.4608 
-6.74291e-05      5.87278      65.8790 
9.21576e-05      4.66013      57.2648 
8.93179e-05      3.29120      73.7677 
-2.33852e-05      6.99085      67.1027 
2.26593e-05      2.82418      74.3890 
-0.000492207      8.07643      56.3099 
-4.22517e-05      8.44407      64.1632 
-2.16837e-05      6.43005      60.5646 
-2.11996e-05      8.30537      69.1210 
-2.07493e-05      5.69351      72.8381 
4.01871e-05      4.12989      58.4652 
2.02406e-05      9.17606      73.5400 
2.03142e-05      10.1787      63.1329 
-2.00948e-05      7.96362      69.1071 
1.99640e-05      4.63862      57.6804 
-2.01223e-05      5.38516      58.6713 
-1.99868e-05      4.21217      71.7371 
1.97505e-05     0.288444     -56.3099 
7.79697e-05      2.76463      58.6097 
-3.72532e-05      7.39513      58.7173 
-7.19490e-05      5.46465      72.0956 
0.000189441      2.79886      59.0362 
-0.000124821      5.42660      71.9657 
-2.79678e-05      7.78614      65.4099 
-2.73951e-05      5.38858      71.8340 
0.000173926     0.509117     -135.000 
7.39048e-05      2.83323      59.4524 
-2.60426e-05      5.35059      71.7005 
-2.54616e-05      7.82253      65.5318 
-4.76334e-05      5.31263      71.5651 
-2.32741e-05      7.85896      65.6526 
0.000158582      4.06192      57.8750 
-4.06668e-05      7.89542      65.7723 
2.06038e-05      2.41760      73.6640 
-0.000160864      4.52902      72.5252 
7.22796e-05      10.1070      63.4349 
1.88135e-05      2.45601      73.9264 
-5.27051e-05      7.96844      66.0083 
5.09944e-05      4.81730      54.4623 
6.58950e-05      8.97793      74.2299 
1.73708e-05      4.84066      54.0771 
3.29472e-05      3.33419      59.7436 
4.81178e-05     0.600000     -143.130 
1.64333e-05      10.0713      63.3332 
1.63484e-05      2.61013      74.8989 
-3.18056e-05      8.00500      66.1247 
1.58525e-05      10.0893      63.1302 
-0.000264391      21.2567     -62.1812 
0.000297488      21.5181      160.790 
0.000128589      17.2290      40.1973 
-0.000158645      27.0207     -46.4995 
-0.000120437      20.0716     -124.608 
-0.000153743      16.3640      124.040 
7.75885e-05      24.2008     -127.343 
0.000114358      19.0093     -112.518 
-7.49082e-05      20.0488     -77.3224 
-0.000146717      25.5696      47.7263 
-7.50588e-05      18.6656     -76.1127 
-0.000109178      14.7870     -118.784 
3.86967e-05      24.1621     -126.111 
-7.36034e-05      18.3485     -125.596 
-3.83451e-05      20.6012     -120.449 
7.43409e-05      17.2244      40.3848 
-0.000108938      21.6920      144.229 
7.35522e-05      13.3080     -162.327 
7.34311e-05      16.9650     -113.482 
-3.77976e-05      20.2821     -79.7760 
7.14716e-05      16.0831      112.675 
-3.73091e-05      21.9177     -59.2694 
7.13953e-05      21.5190      158.634 
-7.05385e-05      19.2961     -75.9638 
-7.14336e-05      13.5295     -151.768 
-7.12446e-05      11.9595      123.956 
-7.09914e-05      23.5527     -146.499 
0.000105032      10.5656      13.3523 
3.62774e-05      13.4615      19.6195 
3.60955e-05      19.4030      45.0000 
-3.59502e-05      22.9379     -150.887 
-3.58323e-05      20.4669     -119.120 
-3.55837e-05      20.0878      77.3474 
-3.54565e-05      16.6889     -84.0844 
3.53328e-05      12.7833     -68.3318 
-3.50703e-05      21.9201     -60.7220 
-3.50277e-05      10.1977     -70.2857 
3.49544e-05      23.8558     -129.830 
-3.48135e-05      19.3981      102.747 
3.46913e-05      14.3446     -86.6429 
3.47487e-05      24.1709     -125.979 
3.45766e-05      13.4992      19.5625 
3.44496e-05      19.4821      39.8357 
-3.42498e-05      20.6215     -120.544 
3.42438e-05      19.4545      18.2114 
3.40912e-05      21.4825     -70.4179 
-3.39294e-05      22.9729     -150.936 
3.39067e-05      17.1940      40.4712 
-3.38589e-05      20.2023     -123.533 
3.38087e-05      26.1839      137.291 
3.36756e-05      25.4627     -128.814 
-3.36500e-05      9.53788     -64.9396 
3.35343e-05      21.4936      160.655 
-3.34765e-05      10.7701      27.4216 
3.34466e-05      17.5844      130.757 

select U, 1, 8
! Flux (Jy) Radius (mas)  Theta (deg)  Major FWHM (mas)  Axial ratio   Phi (deg) T \
! Freq (Hz)     SpecIndex
0.00131596     0.877268      65.7723 
0.000866927      2.89800      63.7886 
0.000356182      2.86217      63.4349 
0.000278929     0.840952      64.6538 
0.000597863      3.98497      70.6557 
-0.000514150      7.42935      58.8775 
-0.000279949      7.11472      58.0971 
-0.000406246      9.16498      59.2936 
0.000113358      8.94615      73.1045 
0.000428597     0.468188      70.0169 
0.000168816      8.99609      72.9347 
5.42781e-05      2.77417      61.5873 
-0.000231934      2.30339      69.6769 
0.000137099      2.73905      61.1892 
4.88848e-05      9.04610      72.7669 
9.26107e-05      5.08551      70.7100 
9.10859e-05      2.93394      64.1336 
4.64533e-05      8.88486      73.5231 
0.000250003      5.96013      61.5430 
-0.000128980      7.08079      57.9260 
4.54294e-05     0.861626      68.1986 
0.000126109      9.08432      72.8416 
-0.000162751      6.88767      62.6909 
0.000127104      1.49452      74.4759 
-8.66164e-05      2.51269      76.1850 
0.000195916      6.69256      67.8806 
0.000189858     0.885438      71.5651 
0.000153214      8.82406      73.9476 
0.000114532      4.50315      71.8869 
0.000220916      5.12328      70.8577 
-4.16966e-05      8.50459      61.0239 
-0.000190357      7.15944      71.7675 
0.000151477      8.23067      74.2076 
7.77396e-05      1.85300      76.2637 
0.000108722      9.12254      72.9157 
-7.94793e-05      2.55155      76.3995 
0.000111142      5.55712      69.3474 
0.000111646      2.91671      64.8407 
-0.000146911      2.28035      68.3852 
-0.000149567      6.85215      62.5374 
-0.000109148      8.48528      61.2602 
0.000108556      2.70407      60.7808 
7.47136e-05      9.47536      66.3568 
0.000145670      1.48432      75.9638 
0.000106982      9.94264      60.3409 
-0.000107221      2.54244      77.2756 
-7.20303e-05      7.10211      57.6526 
-7.15132e-05      9.18547      59.0790 
6.89657e-05      5.94118      61.8821 
-3.47720e-05      5.09651      53.9396 
-3.42095e-05      6.43640      57.6927 
3.38813e-05      9.52806      66.2329 
-3.34752e-05      8.57401      65.4676 
0.000572596     0.665733      57.2648 
0.000454694      5.01007      70.4077 
0.000354991    0.0800000      180.000 
-0.000778829      2.35287      72.1811 
0.000186028      4.56649      71.0889 
0.000160598      5.36328      71.2948 
0.000185043      4.97240      70.2532 
0.000117324      1.62825      62.1759 
0.000341861      3.04237      65.1196 
0.000108959    0.0400000     -180.000 
7.27973e-05     0.855102      100.784 
3.31708e-05      5.41406      71.0296 
0.000122107     0.863481      103.392 
6.33582e-05      1.60997      63.4349 
3.12726e-05      0.00000      0.00000 
5.77701e-05      5.40119      71.4309 
3.02300e-05     0.688186      54.4623 
8.51095e-05      5.97381      69.6236 
5.78726e-05      3.93406      71.0124 
2.91009e-05     0.600000      143.130 
2.84636e-05    0.0400000      0.00000 
2.81148e-05      1.59298      61.5044 
2.71932e-05     0.721110      56.3099 
2.67335e-05      1.74264      80.7539 
0.000188499     0.178885      63.4349 
4.40719e-05     0.144222      56.3099 
0.000187545      4.52902      72.5252 
3.99285e-05     0.200000     -36.8699 
3.81274e-05     0.360000      90.0000 
-0.000267476      8.84226      56.8131 
3.66882e-05     0.344093     -54.4623 
-3.56896e-05      6.92266      56.3099 
3.49324e-05     0.486621      99.4623 
-5.78528e-05      6.88941      56.1254 
9.61541e-05     0.432666     -56.3099 
0.000201827      5.16109      71.0033 
-3.19956e-05      6.85624      55.9391 
3.14574e-05     0.620967      104.931 
-3.02349e-05      6.79011      55.5610 
2.91309e-05     0.708802      106.390 
-2.89006e-05      6.75716      55.3692 
7.50736e-05     0.456070     -52.1250 
-0.000197667      6.59357      54.3815 
2.70021e-05     0.758947      108.435 
0.000104018     0.847585      109.290 
8.45932e-05     0.481664     -48.3665 
0.000115856      2.56281      55.8139 
0.000192799      5.19892      71.1468 
1.82205e-05      8.30768      74.3578 
1.75892e-05     0.698570      113.629 
3.40295e-05      8.26917      74.2830 
-1.73384e-05      6.95598      56.4927 
3.37259e-05     0.509117     -45.0000 
3.14406e-05      7.38777      72.3499 
-3.13329e-05      5.43662      55.4915 
1.57775e-05      3.07766      62.1027 
3.05392e-05      9.48768      65.5960 
1.53709e-05     0.538145     -41.9872 
-1.49784e-05      7.02282      56.8530 
-0.000297632      16.3836     -50.0511 
-0.000213876      17.5419     -24.5196 
-0.000206564      19.2508      78.7368 
-8.89699e-05      19.2900      78.7600 
0.000164518      15.7850     -10.5126 
-0.000126619      9.45939      39.6815 
-4.42721e-05      17.5784     -24.4655 
4.07299e-05      15.5225     -14.3227 
-0.000146736      21.7683     -137.308 
0.000112193      15.6500     -2.05064 
-0.000112356      11.4895     -74.6574 
-7.62434e-05      6.85624     -55.9391 
-3.90833e-05      17.8062     -157.410 
0.000108890      13.9122      55.8987 
7.38397e-05      6.96563      2.30376 
3.82177e-05      17.3159      133.502 
-0.000106474      10.2896     -127.895 
7.35952e-05      15.0192      45.3237 
-7.15055e-05      9.49021      39.5273 
-7.24803e-05      20.7083      12.7209 
-3.70917e-05      17.7692     -157.360 
7.17800e-05      4.15269      7.19347 
-3.67235e-05      11.3189      30.8249 
7.13487e-05      22.7387     -35.1159 
3.64579e-05      7.53530     -176.348 
-3.61549e-05      13.8795     -139.793 
-3.58879e-05      11.3677     -174.751 
3.57419e-05      15.4837     -14.3593 
-6.91154e-05      7.22839     -62.3005 
-6.89947e-05      21.2054     -60.6305 
-3.51371e-05      7.50317     -140.625 
3.50989e-05      26.0787     -140.352 
-3.50046e-05      13.2575     -2.94010 
-3.49173e-05      10.6412     -179.138 
6.80880e-05      17.2378      48.9517 
3.49019e-05      12.0560      111.201 
-6.79591e-05      17.7847     -157.241 
-3.46050e-05      20.3161      61.4165 
-3.44041e-05      18.3671     -23.2150 
-3.43659e-05      7.04557      92.2776 
-3.42602e-05      14.5101     -44.6649 
3.40304e-05      2.56281      34.1861 
-3.40022e-05      15.9090      123.410 
3.38562e-05      17.3449      133.411 
3.37744e-05      7.53796     -176.044 
3.37395e-05      2.80143      99.8658 
3.36981e-05      14.9911      45.4324 
-3.37443e-05      16.4143     -50.1408 
-3.37415e-05      17.1294     -30.7572 
-3.36081e-05      16.1142     -69.3607 
3.35237e-05      16.0090     -8.33256 
3.34756e-05      11.6650      115.598 
3.31158e-05      20.6450      104.359 
-3.30112e-05      19.0778      86.3937 
-3.30370e-05      5.61056     -138.468 
3.29585e-05      21.6393      68.9853 
3.29210e-05      17.8388      115.358 
-3.29063e-05      13.8844     -140.025 
