select I, 1, 8
! Flux (Jy) Radius (mas)  Theta (deg)  Major FWHM (mas)  Axial ratio   Phi (deg) T \
! Freq (Hz)     SpecIndex
  0.531370    0.0894423      116.565 
  0.305245     0.113137      135.000 
  0.262951     0.126491      108.435 
 0.0244385     0.200000     -143.130 
 0.0235169     0.368781      77.4712 
 0.0226633     0.400000     -126.870 
 0.0219375     0.494773      75.9638 
 0.0411901     0.488262     -124.992 
 0.0206209     0.544059      72.8972 
 0.0758624      2.13953      69.1932 
 0.0194677     0.582409      74.0546 
  0.103286     0.544059     -126.027 
 0.0681802     0.632456      71.5651 
 0.0170773      2.12565      70.2011 
  0.210627      2.08806      69.8293 
 0.0289951     0.670522      72.6460 
 0.0955828     0.576888     -123.690 
  0.163579     0.721110      70.5600 
 0.0274408      6.49985      60.9111 
 0.0162041      6.48049      61.2202 
 0.0147199      6.51558      61.3895 
 0.0269897     0.610573     -121.607 
0.00684273      6.65925      61.2797 
0.00656336      6.12000      61.9275 
0.00997577     0.683520      69.4439 
0.00635640      6.83801      61.3360 
0.00979962      6.06590      62.0831 
0.00593931      6.96253      61.5209 
 0.0165907     0.590593     -118.301 
0.00569177      5.95785      62.4027 
 0.0108551      6.99771      61.6771 
0.00928667      5.84999      62.7341 
 0.0101218     0.758947      71.5651 
0.00502353      5.79614      62.9044 
0.00498203      7.03295      61.8317 
 0.0140754     0.536656     -116.565 
 0.0199837      2.05056      69.4440 
0.00473392      6.97883      61.9661 
0.00915150      5.68859      63.2548 
 0.0114361     0.772528      68.7495 
0.00448476      7.01416      62.1197 
 0.0109120     0.809938      69.7751 
0.00426204      7.04954      62.2717 
0.00822837     0.572713     -114.775 
0.00421965      5.52768      63.8058 
0.00658794     0.847585      70.7100 
0.00406272      4.59077      67.4569 
0.00405313      6.96012      62.2568 
0.00383610      7.15598      62.7188 
0.00382067      4.53855      67.7297 
 0.0107294     0.520000     -112.620 
0.00361850      7.26284      63.1527 
0.00360132      4.64310      67.1903 
0.00946906      6.29883      61.9703 
0.00343426      3.93731      69.1714 
0.00340955      7.72787      63.5676 
0.00338245      5.36731      64.3898 
0.00333423      6.60242      62.1930 
0.00324041      7.90676      63.5646 
0.00323926      3.70794      69.8057 
0.00622052     0.557135     -111.038 
0.00315765      4.99552      65.8978 
0.00600132      2.03686      70.4975 
0.00602346      7.88903      63.8247 
0.00593768      3.67042      69.5901 
0.00303109      6.38824      61.9908 
0.00564056     0.735391      67.6199 
0.00295753      5.04841      65.6688 
0.00289209      6.51300      62.1759 
0.00292143     0.609262     -113.199 
0.00281955      8.13978      64.0645 
0.00272634      3.75936      69.4440 
 0.0126388     0.594643     -109.654 
0.00270205      5.11812      65.0372 
0.00268472      7.79959      63.8292 
0.00262879      6.54840      62.3393 
0.00262125      8.67779      64.6161 
0.00256747      3.63296      69.3701 
0.00252747      7.69259      64.1011 
0.00252254      5.17131      64.8225 
0.00249376      6.45898      62.3241 
0.00246106      8.82261      65.0616 
0.00242041      3.54401      69.5196 
0.00239401      7.65663      63.9704 
0.00407314      4.88999      66.3706 
0.00236241      6.42358      62.1584 
0.00232086      8.84217      65.4059 
0.00231348      1.91039      70.4269 
0.00551603      3.36618      69.8424 
0.00226774      7.60316      64.1090 
0.00225838     0.662118      64.9831 
0.00223429      6.28013      62.2924 
0.00431751      4.83735      66.6148 
0.00219867      8.87856      65.5133 
0.00219816      2.10219      68.8059 
 0.0171495     0.582409     -105.945 
0.00733603      3.41760      69.4440 
0.00215458      7.54973      64.2495 
0.00210888      6.40500      62.4748 
0.00208989      8.91498      65.6199 
0.00207518      2.01316      69.0442 
0.00203728      7.63916      64.2400 
0.00202039     0.590593      61.6992 
0.00368096      3.32866      69.6051 
0.00389382      8.97160      66.0634 
0.00198774      1.62086      74.2488 
0.00198047      6.45786      63.1175 
0.00195446      4.80067      66.4253 
0.00193635      7.58578      64.3808 
0.00191719     0.576888      56.3099 
0.00189593      2.22171      66.6660 
0.00186805      6.42221      62.9562 
0.00184983      4.78481      66.8643 
0.00360251      7.62186      64.5108 
0.00180992      8.99208      66.3998 
0.00179365      2.02781      67.9887 
0.00176669      5.85177      61.8584 
0.00173453      1.39714      76.7595 
0.00171788      6.62118      64.9831 
0.00171442      8.97615      66.6338 
0.00169885     0.509117      45.0000 
0.00166852      7.65799      64.6396 
0.00164972      2.08000      67.3801 
0.00320706      9.04964      66.8347 
0.00161596      6.60436      65.2976 
0.00160537      4.95903      65.7090 
0.00160836     0.610573      58.3925 
0.00432388      7.76464      64.3590 
0.00157181      2.13242      66.8014 
0.00932217      3.45508      69.6769 
0.00296140      1.22376      78.6901 
0.00153824      5.80055      61.1373 
0.00150995      6.73380      66.1757 
0.00149219      4.61268      68.1063 
0.00148800     0.488262      34.9920 
0.00255768      7.80072      64.4861 
0.00148504      9.07083      67.1663 
0.00147030      2.18504      66.2505 
0.00643050     0.572713     -102.095 
0.00143435      6.81880      58.9210 
0.00141846      9.01847      67.3019 
0.00140798      5.52941      61.9519 
0.00138060      6.61852      67.6199 
0.00137322     0.538145      41.9872 
0.00136372      2.14849      65.8209 
0.00135723      4.56070      68.3852 
0.00135245      9.05539      67.3996 
0.00131283      1.38852      78.3664 
0.00130909      5.75027      60.4034 
0.00129515      6.69256      67.8806 
0.00128171     0.512250      38.6598 
0.00352990      9.07709      67.7297 
0.00127362      2.20145      65.2976 
0.00246374      7.81803      64.2216 
0.00125124      7.01313      57.5789 
0.00124348      4.75395      67.7510 
0.00122159      1.26301      79.0459 
0.00119933      6.61102      68.7136 
0.00119405      5.56748      61.2253 
0.00119099     0.521536      32.4712 
0.00118337      2.29085      65.2249 
0.00117032      9.11412      67.8250 
0.00115510      7.12359      57.3808 
0.00114656      1.30231      79.3803 
0.00113374      4.73895      68.1986 
0.00112222      7.89015      64.4742 
0.00556572      9.09910      68.0583 
0.00111319     0.544059      36.0274 
0.00213887      2.30790      64.3232 
0.00111365      6.63397      69.1609 
0.00108552      5.79669      58.8328 
0.00106401      1.34164      79.6952 
0.00106112      7.16704      56.8421 
0.00104163      4.79099      67.9321 
0.00104006      6.56841      69.6890 
0.00102980     0.568507      39.2894 
0.00100566      7.87147      64.0860 
0.000995855      5.83849      58.1611 
0.000988012      1.33507      81.3843 
0.000982677      7.20056      57.0162 
0.000967896      4.72424      68.6490 
0.000970129      6.59224      70.1357 
0.000967217      9.06201      67.9638 
0.00185037     0.555698      30.2564 
0.00184866      2.32551      63.4349 
0.000945216      7.83684      64.6121 
0.000924778      1.29553      81.1193 
0.000915917      7.22241      56.7500 
0.000914535      5.68690      59.1054 
0.000905540      6.68108      70.0462 
0.000899554      4.76151      68.8243 
0.000886940      7.90746      64.2127 
0.000867684      6.62987      70.2532 
0.000859949      1.25028      82.6476 
0.000846508      5.77068      57.7420 
0.000845965      7.62155      67.4727 
0.00156697      9.12140      68.3852 
0.000836693      7.21110      56.3099 
0.000829140      4.79883      68.9968 
0.000826368     0.600000      36.8699 
0.000825864      2.28980      62.9873 
0.000807897      8.08950      61.6609 
0.000806476      6.56549      70.7923 
0.000799218      1.32966      83.0888 
0.000782689      7.23337      56.0463 
0.000778773      5.05268      66.6823 
0.000769400     0.590593      28.3008 
0.000770271      7.40648      69.1180 
0.000768999      5.96858      56.2034 
0.000764234      2.30825      62.1027 
0.00144903      1.28561      84.6442 
0.000747897      8.05779      60.8901 
0.000790893     0.626099     -116.565 
0.000739081      6.51460      71.0088 
0.000729296      4.75714      70.3462 
0.000722142      7.20022      55.8685 
0.00139318      2.32723      61.2324 
0.000722099     0.609262      23.1986 
0.000709809      7.44387      69.2277 
0.000707286      9.22345      60.6558 
0.000720065     0.665732     -122.735 
0.000697830      5.85764      56.4184 
0.000691140      6.46381      71.2287 
0.000690646      8.08218      60.0089 
0.00133458      9.10675      68.6192 
0.000678500      4.87360      69.3339 
0.00131282     0.620967      14.9314 
0.000667474      7.13414      55.5080 
0.000695112     0.764199     -132.879 
0.000659020      7.48128      69.3364 
0.00127061      1.28250      86.4237 
0.000643875      6.45105      71.5651 
0.000643635      8.13683      59.9058 
0.000637692      5.90227      55.7715 
0.000631438      4.83256      70.6652 
0.000667131     0.820731     -136.975 
0.000627143      9.35222      60.2551 
0.000623473      2.31206      59.8863 
0.000619370      7.22274      55.6059 
0.000613059      7.46726      69.6236 
0.000610981      9.09224      68.8539 
0.000597516     0.651153      10.6197 
0.000598806      6.40050      71.7915 
0.000598654      8.08802      59.3764 
0.000696998     0.850411     -138.814 
0.000594430      5.11077      67.4491 
0.000585035      9.42677      59.9536 
0.000581800      1.44056      88.4089 
0.000579258      7.24541      55.3449 
0.000576087      5.81364      55.6539 
0.000574692      7.49101      70.0169 
0.000730556     0.880909     -140.528 
0.00160424      9.07789      69.0894 
0.00110094      2.35321      58.2011 
0.000559154     0.659697      14.0362 
0.000559902      6.43851      71.9027 
0.000558745      8.10846      59.1332 
0.000551496      5.01007      70.4077 
0.000547293      1.40000      90.0000 
0.000547152      3.49262      69.9048 
0.000542820      9.48143      59.8654 
 0.0144233     0.912140     -142.125 
0.000538217      7.52861      70.1209 
0.000535421      5.83630      55.3297 
0.000533710      7.23547      54.9042 
0.000526700     0.684690      6.70981 
0.000524001      10.4303      64.3194 
0.00101072      6.33782      72.3655 
0.000520795      8.18398      58.7961 
0.000519273      1.52210      93.0128 
0.000930345      3.53021      70.1278 
0.000510433      5.05964      71.5651 
0.000504205      7.51511      70.4077 
0.000500190     0.665732     -57.2648 
0.000500289      1.00717      83.1572 
0.000955043      7.17016      54.5366 
0.000496651      9.34340      59.3728 
0.000493554      10.4663      64.4143 
0.000491593      2.39633      56.5752 
0.000485208      8.23893      58.7023 
0.000481720     0.724431      6.34017 
0.000480533      4.85189      74.7035 
0.000479389      5.88218      54.6888 
0.000925284      3.50657      69.2910 
0.000919654      1.69706      98.1301 
0.000474306      7.60389      70.3259 
0.000471940      9.06369      69.3256 
0.000468794      10.4682      64.9037 
0.000461429      9.36385      59.1622 
0.000459664      2.36305      56.0409 
0.000457204      6.28764      72.6025 
0.000454396     0.967471      82.8750 
0.000453845      8.25978      58.4652 
0.000448477      7.71699      70.6259 
0.000446052      5.13560      71.8473 
0.00127483     0.712180     -51.8428 
0.000443577      10.4876      65.1943 
0.000441412      5.77068      54.8778 
0.000438392      9.04964      69.5625 
0.00150272      4.07451      46.5911 
0.00115396     0.761052      3.01278 
0.000430003      6.41411      72.5820 
0.000427605      9.45304      59.2026 
0.000426581      8.01359      58.0552 
0.000423363      10.5073      65.4838 
0.000423807      1.73666      97.9435 
0.000419777      7.70382      70.9065 
0.000803915      2.37622      53.9017 
0.000416134      7.07276      53.9726 
0.000412845      4.78565      77.9387 
0.000413403      8.97472      69.3842 
0.000410464      5.71496      54.9751 
0.00155304     0.933810      80.1342 
0.000405168      6.27579      72.9510 
0.000405208      10.5849      67.7965 
0.000399555      8.44606      57.9659 
0.000396193      9.50789      59.1189 
0.000394294      7.69083      71.1881 
0.000684665      1.81593      97.5946 
0.00108495      3.51682      70.7407 
0.000388861      5.59142      56.0826 
0.000388239      10.4908      65.6826 
0.000740051      7.16101      54.0903 
0.000738346      4.76957      78.8785 
0.000384179      8.96071      69.6236 
0.00105107      6.31405      73.0574 
0.000375541      8.23417      57.6996 
0.000370533      7.60221      71.2790 
0.000370708      9.52848      58.9125 
0.000723187      10.5921      68.2790 
0.000365295      6.22588      73.1950 
0.00101722      1.85559      97.4314 
0.000362921      5.51376      56.5405 
0.000695859      8.87180      69.6858 
0.000357796      2.36812      52.5494 
0.000349965      8.31086      57.3808 
0.000348674     0.835225      73.3008 
0.000346815      9.56276      59.0362 
0.000969336      7.71596      71.5651 
0.000340991      10.4648      63.4349 
0.000647209      2.39266      51.7890 
0.000333669      5.68225      54.7436 
0.00113218      4.10210      46.1853 
0.000332179      8.15470      57.0115 
0.000328907      10.6000      68.7607 
0.000329211      4.70846      80.2176 
0.000374173     0.737563     -49.3987 
0.000628348      7.03204      53.3256 
0.000321559      9.49425      58.7879 
0.000318144      5.33816      57.8581 
0.000315672      8.90932      69.7751 
0.000314549      10.5008      63.0445 
0.000312166      8.26540      56.8483 
0.000309791      3.54175      71.5651 
0.000601734      10.6229      69.0399 
0.000307741      6.26418      73.3008 
0.000304329      9.54920      58.7070 
0.000301965      5.30253      73.3422 
0.000569587     0.902441      77.1957 
0.000381169     0.764199     -47.1211 
0.000295718      8.94687      69.8637 
0.000294175      5.72880      54.0903 
0.000293311      3.50383      71.3582 
0.000290985      8.14312      56.6222 
0.000290025      4.68956      81.6626 
0.000289781      6.52871      72.8973 
0.000557770      2.36136      51.1886 
0.000285610      10.4849      62.2618 
0.000284004     0.764199      6.00899 
0.000283085      9.46006      58.6623 
0.000885771      8.17195      70.8555 
0.00231092      1.57175      104.744 
0.000277255      7.08802      53.2594 
0.000276810      8.32077      56.7683 
0.000276399      6.30251      73.4052 
0.000276087      5.40296      56.7805 
0.000274830      10.5856      68.9625 
0.000272702      9.02202      70.0386 
0.000525522      3.52931      72.1811 
0.000269642      4.64431      82.0793 
0.000267342      7.61493      71.9457 
0.000776343     0.791959     -45.0000 
0.000266193      10.5389      62.1706 
0.000263860      9.51504      58.5819 
0.000260369      5.67295      54.1805 
0.000259729      2.05407      96.7098 
0.000260869      8.22066      56.3099 
0.000260350      6.39062      73.2664 
0.000257980      10.6087      69.2417 
0.000257604      8.89557      70.0169 
0.000908913      2.33032      50.5722 
0.000252514      7.00000      53.1301 
0.000480998      7.69103      72.1305 
0.000250121      5.40651      74.1128 
0.000477403      9.44991      70.7214 
0.000697270      9.57004      58.5023 
0.000246133      8.18740      56.1547 
0.000244388      10.5577      61.9786 
0.000242598      5.44720      56.0765 
0.000463073      6.56695      72.9999 
0.000241398      4.59426      82.9987 
0.000501119      10.6320      69.5196 
0.000499923     0.769415      8.97265 
0.00219439      4.07333      45.7957 
0.000234567      2.21305      96.2258 
0.000233818      8.24291      56.0786 
0.000655184      3.54401      73.6105 
0.000231872      6.11529      74.0546 
0.000229695      6.93617      52.7336 
0.000228906     0.927793      82.5686 
0.000226831      5.34760      56.9043 
0.000226498      10.5946      69.4440 
0.000223252      10.5955      61.5967 
0.000223265      4.63396      83.0590 
0.000495362      8.54026      70.2920 
0.000612935      8.26530      55.8485 
0.000214571      5.72014      53.5308 
0.000211617      5.56058      74.5641 
0.000212011      7.02407      52.8691 
0.000580776     0.776659      11.8886 
0.000208984      10.6497      61.5098 
0.000320443      6.79353      72.5252 
0.00123221      13.1330      68.7495 
0.000396587      9.43678      70.9506 
0.000204621      9.53595      58.3768 
0.00133177      2.37217      95.8067 
0.000528669      4.58955      83.4944 
0.000391112      5.29226      57.0306 
0.000233421      10.6695      69.5948 
0.00133796      8.57793      70.3821 
0.000197315      6.19225      74.2580 
0.000370140      8.19922      55.5347 
0.000279459     0.820731     -43.0251 
0.000196074      6.99222      52.6712 
0.000545762      7.66686      72.6995 
0.000192462      10.6881      61.1328 
0.000191538      9.50192      58.2503 
0.000355002     0.963328      85.2364 
0.00148308      3.49445      74.0546 
0.000307351      4.62930      83.5505 
0.000188000      11.4700      58.6936 
0.000187296      10.6932      69.8704 
0.000527982      2.29957      49.9392 
0.000185730      6.65516      72.8720 
0.000181850      5.72545      74.6044 
0.000181653      6.96046      52.4716 
0.000351397      9.59100      58.2986 
0.000451263      10.0445      70.6992 
0.000177457      5.43662      55.4915 
0.000345409      11.4909      58.5232 
0.000701257     0.850412     -41.1859 
0.000174926      5.67634      74.8865 
0.000231602      1.04077      92.2026 
0.000169819      10.7683      70.0169 
0.000169358      3.53293      74.2328 
0.000317183      9.42380      71.1805 
0.000168057      5.45938      55.1455 
0.000164719      5.80262      74.8142 
0.000587618      7.04829      52.6098 
0.000163258      6.88186      72.4076 
0.000162530      8.16627      55.3758 
0.000300923      10.6725      60.8411 
0.000449786      9.55699      58.1726 
0.000160064      10.8059      70.0894 
0.000158416      5.71202      52.9696 
0.000303719      11.5459      58.4575 
0.000156309      10.0068      70.6235 
0.000300531      5.71496      74.9911 
0.000432041      2.26910      49.2892 
0.000500613      8.22192      55.3048 
0.000151691      6.84374      72.3064 
0.000150172      5.33622      56.3099 
0.000266655      1.19331      103.570 
0.000149096      14.7116      66.7810 
0.000274859      10.8435      70.1614 
0.000145831      7.65506      72.9853 
0.000269744      9.61208      58.0957 
0.000143640      8.13339      55.2157 
0.000414526      1.04307      94.3987 
0.000429822     0.880909     -39.4724 
0.000141449      4.37484      85.2799 
0.000140926      5.35851      55.9541 
0.000401139      14.7274      66.6379 
0.000138681      6.60521      73.1013 
0.000503218      13.1103      68.5232 
0.000265025      11.5668      58.2887 
0.000250969      10.8812      70.2328 
0.000330020      1.08665      96.3402 
0.000376312      7.64345      73.2720 
0.000261998      5.79227      75.1960 
0.000751709      21.6058      61.3472 
0.000132179      5.28076      56.4303 
0.000132047      4.37173      85.8023 
0.000346904      9.66718      58.0197 
0.000128257      1.34104      107.354 
0.000126983      5.30298      56.0702 
0.000541673      8.18907      55.1455 
0.000237061      9.41097      71.4110 
0.000545980      2.23893      48.6215 
0.000236097      14.7327      66.9852 
0.000547231      21.5707      61.2963 
0.000234425      5.83095      75.2964 
0.000222401      10.0823      70.7743 
0.000229213      11.6219      58.2245 
0.000232079      5.38100      55.6012 
0.000118135      9.72230      57.9446 
0.000482257      7.07265      52.3524 
0.000215254      10.6921      60.6539 
0.00112194     0.912140     -37.8750 
0.000220080      13.1027      68.1336 
0.000354580     0.885438      18.4349 
0.000111667      4.36898      86.3255 
0.000111253      14.5986      62.5924 
0.000108902      1.30292      107.879 
0.000296521      10.1201      70.8489 
0.000306687      7.63204      73.5596 
0.000107682      14.6926      68.6041 
0.000107507      7.01655      52.4115 
0.000107248      5.70473      75.3791 
0.000106700      23.2472      61.7593 
0.000284368      5.44970      54.5601 
0.000169737      10.9188      70.3038 
0.000197020      11.6430      58.0572 
0.000818431      19.8376      61.0576 
0.000103145      5.65601      75.6689 
0.000102601      14.6780      68.7495 
0.000499925      14.5462      62.3075 
0.000420037      5.42660      54.9042 
0.000510778      23.2283      61.8463 
0.000294846      9.63328      57.8937 
0.000192535      13.0806      67.9058 
0.000352341      4.36660      86.8493 
9.76231e-05      5.82093      75.6773 
0.000187887      18.1417      67.1663 
0.000318122      1.04000      90.0000 
9.64020e-05      14.6442      69.5355 
0.000491329      3.48368      74.6872 
0.000252476      10.9054      70.5017 
0.000180256      17.9608      59.7803 
9.26248e-05      5.90837      75.4934 
9.12296e-05      16.6231      64.7915 
0.000590369      4.04475      45.4007 
9.02186e-05      10.6572      60.5485 
0.000398511      7.62081      73.8481 
8.96961e-05      14.6303      69.6823 
0.000322892      2.20907      47.9357 
0.000319948      13.0739      67.5150 
8.77624e-05      5.85969      75.7740 
0.000169848      11.6981      57.9946 
0.000250705      16.6402      64.6669 
0.000930137      10.2332      71.7775 
8.46465e-05      6.70522      72.6460 
0.000164573      8.21199      54.9165 
0.000164390      14.6027      69.9767 
0.000311557      9.68843      57.8191 
8.36864e-05      20.7041      55.3889 
0.000303044      18.1262      67.2829 
8.26252e-05      5.77235      75.9638 
8.19085e-05      5.34805      55.3591 
0.000227471      17.9810      59.6702 
8.07136e-05      9.39830      71.6422 
7.93760e-05      5.68507      76.1593 
0.000574527      20.6712      55.3259 
7.79929e-05      1.00319      85.4261 
0.000211481      10.6224      60.4424 
0.000214267      11.7533      57.9326 
0.000149282      16.6573      64.5426 
0.000493556     0.944034     -36.3843 
7.49450e-05      5.81116      76.0594 
0.000146313      8.17929      54.7555 
0.000145555      14.6131      70.3251 
0.000139802      7.04102      52.1536 
0.000249341     0.923472      17.6501 
0.000167166      5.84999      76.1538 
-0.000200935      21.1752      71.1543 
0.000136112      16.6746      64.4185 
0.000137193      26.9223      63.4350 
6.88957e-05      4.74856      83.7131 
6.84640e-05      5.97609      76.0568 
0.000182004      9.74359      57.7453 
0.000189471      2.17954      47.2312 
0.000194474      3.47333      75.3236 
0.000313102      14.2591      60.4146 
0.000131622      8.23505      54.6888 
6.70115e-05      5.77844      51.4641 
6.69489e-05      13.0678      67.1238 
0.000183852      21.6218      61.4911 
0.000129006      14.5997      70.4729 
0.000385952      7.60978      74.1373 
0.000274056      5.80165      76.4428 
0.000330350      18.0012      59.5603 
0.000613810      20.3066      72.8143 
0.000183274      18.1108      67.3996 
0.000416955      22.3029      55.2269 
0.000413030      23.2094      61.9333 
6.44789e-05      5.37088      55.0080 
6.40411e-05      9.38578      71.8739 
0.000125392      26.9044      63.5111 
6.37099e-05      1.13137      98.1301 
-0.000917005     0.291204     -164.055 
6.30013e-05      16.6919      64.2946 
6.25462e-05      24.8467      57.6915 
0.000112311      4.36458      87.3736 
6.23883e-05      11.7745      57.7677 
-0.000314260      11.8878      65.7635 
0.000119147      13.0624      66.7323 
0.000121329      5.39392      54.6599 
6.17747e-05      1.08296      94.2364 
6.12941e-05      8.26772      54.8490 
0.000119329      9.79878      57.6723 
-0.000285193      21.1623      71.2568 
5.99080e-05      6.98490      52.2113 
0.000115771      19.8183      61.1588 
0.000117351      3.46341      75.9638 
0.000169936      14.5864      70.6210 
5.93722e-05      16.7093      64.1710 
0.000168818      11.8084      57.8712 
0.000159293      24.9367      63.5172 
0.000109764      5.75347      76.7367 
0.000168212      26.8866      63.5874 
0.000267975      8.30046      55.0080 
0.000211066      24.8129      57.6422 
0.000326333      5.41716      54.3148 
0.000243889      5.79241      76.8274 
5.61803e-05      16.7267      64.0477 
0.000198887      6.95333      52.0094 
5.55488e-05      13.7271      54.9669 
0.000161451      3.45393      76.6075 
0.000203522      25.4189      67.7130 
5.47710e-05      9.88777      57.7244 
0.000104516      18.1324      67.5649 
0.000200137      23.8392      69.1627 
0.000241251      24.9545      63.4350 
0.000236329      4.01637      45.0000 
0.000103649      16.7619      63.8018 
5.29929e-05      5.70544      77.0355 
5.29528e-05      19.8533      61.2145 
0.000148902      13.0415      66.5014 
0.000139176      8.61561      70.4714 
0.000144197      2.15035      46.5074 
0.000144725      9.85397      57.6002 
5.16679e-05      14.7765      62.9494 
0.000361444      7.59895      74.4275 
5.16647e-05      14.5732      70.7693 
0.000100462      26.8688      63.6638 
0.000203345      14.2789      60.2750 
-0.00173336     0.304631     -156.801 
-0.000279962      21.1244      71.2220 
5.05505e-05      8.31048      55.3921 
0.000191208      5.44059      53.9726 
4.98582e-05      10.5832      60.8192 
0.000189927      3.44488      77.2547 
9.57503e-05      13.6943      54.8709 
0.000179637      19.8341      61.3158 
9.54635e-05      21.6379      61.6347 
4.92981e-05      14.6110      70.8210 
-0.000219324      16.4019      73.4212 
0.000179351      11.8423      57.9741 
0.000259242      20.5846      67.3716 
4.75448e-05      14.8738      65.3648 
4.74707e-05      5.83136      76.9170 
0.000212192      20.6383      55.2627 
8.97174e-05      18.1172      67.6818 
4.68669e-05      1.04690      96.5819 
9.17990e-05      26.8511      63.7403 
0.000133573      14.5979      70.9693 
0.000130764      8.33326      55.1657 
9.63416e-05      1.07703      111.801 
4.57037e-05      16.7796      63.6793 
-0.000126392      11.8513      65.6841 
8.86320e-05      22.3950      67.9705 
4.50330e-05      13.0256      66.6628 
0.000249694      5.74442      77.1250 
4.45446e-05      1.00080      92.2906 
8.50683e-05      24.7791      57.5926 
0.000163624      23.8624      69.2866 
0.000122160      25.4711      67.6639 
0.000124527      3.40588      77.1063 
4.34551e-05      18.7789      68.9012 
8.53310e-05      1.04000      112.620 
8.26277e-05      16.8510      63.4958 
8.32830e-05      13.6616      54.7743 
8.38382e-05      26.8158      63.8936 
8.43564e-05      12.2648      74.8760 
4.26387e-05      4.36293      87.8983 
8.03746e-05      18.0215      59.4506 
8.10227e-05      3.08415      92.9737 
0.000121350      13.0209      66.2698 
4.22300e-05      6.92878      52.2701 
0.000172899      8.34343      55.5481 
0.000221083      14.2988      60.1358 
-0.000119924      21.1116      71.3247 
7.94497e-05      9.90919      57.5288 
4.13363e-05      22.3280      68.1223 
0.000279518     0.888144      144.162 
7.97752e-05      21.6190      61.7280 
7.89039e-05      17.6746      72.7543 
4.08807e-05      14.8936      65.5688 
4.04732e-05      2.12151      45.7639 
4.03398e-05      18.8680      68.8753 
7.91887e-05      6.89719      52.0667 
7.83015e-05      12.2262      74.8271 
3.99417e-05      14.5849      71.1178 
7.69133e-05      11.8211      58.1385 
3.92332e-05      24.9009      63.4761 
3.90683e-05      22.3132      68.2177 
3.89794e-05      26.7982      63.9704 
-7.69048e-05      6.15532      62.1027 
3.86763e-05      14.8972      65.9125 
3.84939e-05      19.8149      61.4172 
3.83060e-05      22.2801      55.3113 
-5.44578e-05      3.98818      44.5937 
0.000484820      7.58831      74.7184 
3.82828e-05      18.8536      68.9887 
3.78224e-05      24.7454      57.5430 
0.000101919      6.93767      54.3855 
9.94522e-05      10.3754      63.4349 
9.59339e-05      15.0494      67.6613 
9.31203e-05      6.90519      54.1922 
9.14823e-05      14.2198      60.6949 
0.000333149      3.12410      92.9357 
8.99998e-05      15.1386      67.6363 
8.89076e-05      10.3576      63.1381 
0.000168006      17.6585      67.2104 
0.000516755      20.6568      68.0544 
8.38399e-05      15.2278      67.6117 
0.000120017      6.92867      53.9240 
8.17487e-05      14.2394      60.5546 
8.05950e-05      10.4287      68.1578 
7.85441e-05      6.48346      74.2488 
0.000439653      2.06495      44.2152 
0.000285693      13.0467      65.1635 
0.000138149      3.48092      91.3169 
7.52150e-05      15.2801      67.5301 
0.000137530      6.89638      53.7283 
7.26906e-05      10.4510      68.4429 
7.05389e-05      5.57078      77.5604 
0.000128602      17.6954      67.2606 
0.000400765      3.52091      91.3019 
0.000131988      22.3076      63.0214 
6.76046e-05      15.3693      67.5063 
6.62505e-05      10.3415      62.3447 
0.000384250      1.15169      110.323 
0.000102745      6.69770      74.0546 
6.25233e-05      15.3170      67.5873 
8.04257e-05      26.4569      65.5274 
0.000114454      12.0169      57.3679 
5.94663e-05      22.3258      62.9300 
5.91372e-05      10.5713      69.1648 
5.86621e-05      25.4629      66.7778 
0.000352294      5.47576      78.1976 
0.000107462      26.4901      65.3699 
5.69988e-05      9.33535      72.0309 
5.66957e-05      15.5847      67.5159 
5.61723e-05      6.86417      53.5308 
5.56373e-05      20.6419      68.1574 
5.47586e-05      25.7694      61.8438 
5.39564e-05      26.4735      65.4486 
5.29457e-05      6.86254      74.1005 
5.28559e-05      22.2902      62.8832 
5.21735e-05      17.7323      67.3105 
5.17112e-05      10.0785      58.1392 
5.18079e-05      25.4315      66.9434 
5.14472e-05      15.6369      67.4365 
0.000136182      20.6048      68.1160 
0.000135106      26.5068      65.2913 
4.93685e-05      19.5438      61.6516 
4.86128e-05      6.88802      53.2632 
4.86555e-05      25.7883      61.7655 
4.82435e-05      12.0506      57.4705 
0.000197660      19.2014      68.6197 
0.000124789      13.0299      65.3231 
4.72840e-05      20.2466      56.2785 
4.54793e-05      25.4159      67.0264 
0.000111515      9.29731      71.9548 
4.51527e-05      18.5165      59.7792 
4.46348e-05      14.5378      70.2189 
4.45495e-05      25.8073      61.6872 
0.000122889      20.2356      56.1215 
7.49954e-05      5.51493      78.2826 
0.000300151      2.03725      43.4089 
6.44925e-05      26.5236      65.2128 
4.26773e-05      12.0385      57.2076 
4.22754e-05      19.5790      61.7072 
4.19150e-05      24.9037      64.2993 
7.87381e-05      6.85600      53.0632 
0.000230397      1.11427      111.038 
4.10216e-05      25.4371      67.1445 
0.000762446      27.1403      62.5286 
4.03510e-05      10.0319      57.7040 
3.96198e-05      14.4977      70.6652 
3.92909e-05      25.8453      61.5311 
7.29438e-05      18.4820      59.7168 
3.84030e-05      13.3145      55.4028 
0.000359989      14.6105      75.7355 
0.000103017      25.4216      67.2276 
0.000120256      20.5899      68.2193 
0.000176859      5.46772      78.6079 
6.68674e-05      17.4455      72.5206 
3.57480e-05      25.8102      61.4888 
3.55234e-05      20.2688      56.1845 
6.36848e-05      13.3372      55.2614 
3.31012e-05      19.6142      61.7626 
3.29648e-05      25.8293      61.4108 
6.04042e-05      6.82408      52.8614 
7.23982e-05      20.2911      56.0906 
3.21062e-05      9.25929      71.8781 
3.13629e-05      11.9931      56.8399 
3.07015e-05      18.4475      59.6541 
5.34369e-05      10.0197      57.3885 
2.99828e-05      25.8485      61.3329 
8.18032e-05      20.2579      56.0275 
5.25501e-05      24.8316      64.2192 
7.76873e-05      8.45468      55.4077 
2.83453e-05      15.7631      67.4696 
5.35374e-05      25.4062      67.3107 
2.79662e-05      22.5137      68.3120 
2.79387e-05      5.56230      77.9628 
2.77148e-05      24.1409      56.6259 
2.74852e-05      13.0497      65.5560 
7.11349e-05      18.4130      59.5913 
2.62940e-05      25.8677      61.2552 
0.000128439      17.4074      72.4810 
6.59244e-05      26.4404      65.6063 
4.76752e-05      19.6684      61.7150 
4.74015e-05      13.3601      55.1204 
2.51227e-05      6.56049      74.4385 
2.48594e-05      19.1869      68.7309 
-0.000231997      4.36660      65.0782 
2.44322e-05      6.84830      52.5946 
2.39547e-05      24.1963      56.5989 
2.43040e-05      5.69744      51.8428 
2.39931e-05      3.56090      91.2873 
0.000124485      5.64128      51.9112 
6.16587e-05      25.8712      61.0573 
-2.27264e-05      2.55625      69.8637 
4.25652e-05      25.4277      67.4287 
2.24656e-05      5.37386      79.2756 
-0.000329302      2.54275      70.7100 
3.90955e-05      5.42070      78.9388 
2.15676e-05      11.9817      56.5752 
2.14232e-05      24.2517      56.5720 
-0.000162154      4.40291      65.2976 
2.06609e-05      6.88012      52.7970 
2.03772e-05      8.42178      55.2532 
3.95009e-05      18.3582      59.6357 
1.98811e-05      24.2851      56.6240 
1.96335e-05      12.0262      52.0247 
1.95347e-05      24.7956      64.1790 
5.68555e-05      3.44093      91.3322 
1.89426e-05      9.96442      57.4582 
-0.000178635      4.43928      65.5133 
1.88694e-05      19.7064      61.5102 
-0.000175739     0.341760     -159.444 
1.85439e-05      20.5379      68.2815 
-5.49655e-05      2.50503      70.4077 
1.84437e-05      19.4275      54.2155 
3.55725e-05      8.36612      55.3222 
1.82060e-05      24.3740      56.6490 
0.000136993      5.58512      51.9811 
-0.000191243      2.49191      71.2742 
1.78974e-05      13.3044      55.1632 
3.19290e-05      14.6204      75.5836 
1.75599e-05      25.4124      67.5119 
1.74297e-05      12.0691      51.4588 
3.40123e-05      5.56058      52.3058 
1.73444e-05      18.3237      59.5725 
1.70502e-05      25.8362      61.0143 
4.24110e-05      19.2242      68.7742 
3.33293e-05      14.6405      75.2803 
1.67319e-05      5.42852      78.5245 
2.54793e-05      26.6593      64.5884 
2.33184e-05      26.5741      64.9779 
6.71226e-05      15.5986      72.5408 
-0.000368849      3.96020      44.1815 
2.05686e-05      15.6368      72.5848 
1.97767e-05      14.6714      74.8271 
1.90929e-05      12.4701      55.8512 
1.89255e-05      15.7513      72.7154 
1.82556e-05      14.6610      74.9780 
1.80815e-05      14.6068      58.0944 
1.76676e-05      12.3936      55.3867 
1.72798e-05      15.8659      72.8442 
1.69114e-05      26.4239      65.6853 
1.68061e-05      12.3607      55.2814 
1.63168e-05      19.1401      58.5023 
1.59751e-05      12.3279      55.1755 
1.57005e-05      15.9806      72.9711 
1.56671e-05      26.3910      65.8435 
1.52662e-05      12.3180      54.9165 
2.92359e-05      19.1060      58.4396 
1.50579e-05      14.6304      75.4318 
1.45106e-05      26.3747      65.9228 
1.45041e-05      12.2853      54.8093 
1.38308e-05      12.2758      54.5491 
1.36936e-05      16.1337      73.1375 
1.31797e-05      14.6280      57.9614 
0.000111908      25.5264      58.6513 
2.54115e-05      26.3421      66.0817 
1.27119e-05      19.1269      58.3375 
-1.29595e-05     0.937230      50.1944 
1.25911e-05      12.2432      54.4406 
1.24627e-05      16.1720      73.1786 
-2.47565e-05     0.880909      50.5275 
2.43717e-05     0.791959     -135.000 
1.21657e-05      7.57131      74.0546 
-1.21099e-05     0.856037      52.5947 
1.17502e-05      26.3260      66.1613 
1.17630e-05      7.53286      73.9710 
1.17184e-05      19.0929      58.2745 
-2.37291e-05     0.800000      53.1301 
1.15154e-05      12.2575      54.0276 
1.14100e-05      16.2103      73.2195 
2.29013e-05     0.737563     -130.601 
1.12705e-05      7.48342      74.1808 
-1.12962e-05     0.776659      55.4914 
1.11828e-05      26.3098      66.2409 
3.31200e-05     0.712180     -128.157 
-3.32746e-05     0.721111      56.3099 
1.09660e-05      7.44494      74.0969 
2.06817e-05      16.7275      68.0968 
3.18146e-05     0.688186     -125.538 
1.06453e-05      7.40648      74.0121 
5.68172e-05      19.0800      58.1092 
-3.21537e-05     0.644980      60.2551 
1.04327e-05      12.2165      53.6554 
1.03034e-05      26.2937      66.3207 
1.02385e-05      7.32961      73.8399 
4.04267e-05     0.644980     -119.745 
-6.44315e-05      3.93243      43.7636 
9.94915e-06      7.25281      73.6640 
-2.01432e-05     0.572713      65.2249 
-9.22493e-05      22.9334      63.7031 
1.97071e-05      26.2777      66.4006 
-2.92611e-05     0.520000      67.3801 
-9.75732e-06      22.9157      63.7928 
9.69645e-06      7.12640      73.7012 
9.58562e-06      12.2320      53.2425 
-9.45485e-06     0.505964      71.5650 
9.37828e-06      7.04965      73.5187 
-9.42729e-06      2.65932      68.8387 
2.75709e-05      26.2617      66.4806 
9.37335e-06      16.7646      68.1478 
-9.45141e-06     0.468188      70.0169 
-2.75077e-05     0.456070      74.7449 
9.18676e-06      6.92324      73.5544 
-1.77116e-05      2.69666      69.1455 
9.08525e-06      6.79682      73.5914 
-3.54037e-05     0.407922      78.6901 
8.90309e-06      16.2869      73.3008 
8.85246e-06      6.75846      73.4956 
2.56505e-05      26.2458      66.5606 
8.78890e-06      12.2649      52.4200 
-2.55948e-05      22.8975      63.6588 
8.58278e-06      6.67041      73.6298 
8.56979e-06      16.8166      68.0721 
-1.74557e-05     0.401995      84.2894 
8.43516e-06      19.1140      58.1726 
-3.36901e-05     0.360000      90.0000 
8.43196e-06      6.63204      73.5325 
-8.41706e-06      2.68269      69.9439 
2.62871e-05      21.8019      74.0257 
8.32796e-06      6.59369      73.4339 
8.20632e-06      16.8537      68.1228 
-0.00119740     0.536656     -153.435 
0.000203642      32.2614      70.4417 
0.000257142      29.7705      66.3971 
4.73689e-05      29.8027      66.2561 
0.000188619      34.3439      59.7916 
0.000155017      32.0388      66.7638 
0.000232336      32.2347      70.5757 
9.52736e-05      34.4130      59.8586 
7.20515e-05      33.4883      63.0065 
5.90427e-05      29.8759      66.3179 
0.000294207     0.966644      114.444 
8.19160e-05      33.4521      63.1286 
0.000124900      33.9789      70.7545 
2.86691e-05      31.9653      66.7073 
-0.000405423      26.4039      63.7455 
0.000193018      35.6535      68.2702 
8.38623e-05      34.4533      59.7436 
0.000227920      28.6464      67.1586 
0.000147539      30.5320      61.6891 
8.72820e-05      35.2763      63.3187 
0.000124807     0.894427      116.565 
2.11979e-05      3.84832      46.6847 
5.81430e-05      8.38895      55.0975 
3.82871e-05      35.3123      63.2027 
0.000421843      2.03647      45.0000 
3.83197e-05      38.1744      63.2202 
7.09932e-05      3.79389      47.5638 
7.95917e-05      36.2480      58.9061 
-0.000557595      2.32963      74.0546 
0.000719352     0.865332      146.310 
3.49640e-05      34.0545      70.7989 
-0.000306751     0.466476     -149.036 
3.26731e-05      29.8439      66.4586 
0.000105213      6.97607      53.3929 
-0.000144490      11.7456      65.8790 
1.70783e-05      3.28098      91.3972 
0.000111941      30.4616      61.6177 
-0.000119292      8.69501      64.3780 
-0.000403509      4.44342      66.6660 
7.60796e-05      3.39600      74.9816 
-0.000180721     0.430813     -158.199 
1.52462e-05      38.2105      63.1131 
-0.000245414      6.11830      62.7649 
7.89185e-05      13.2716      55.0646 
0.000111355      5.53621      52.6333 
-2.94229e-05      6.04728      62.4180 
6.90224e-05      14.3388      59.8586 
3.99029e-05      20.3969      68.3655 
-9.04860e-05      26.3686      63.9014 
2.85124e-05      3.41760      73.6861 
0.000139987      7.54973      74.6384 
-0.000832114     0.357771     -153.435 
7.59216e-05      33.9526      70.8820 
2.61252e-05      32.6695      62.4310 
2.80345e-05      3.36476      71.9958 
2.70092e-05      9.78652      57.3492 
1.36129e-05      13.0253      64.5367 
0.000153013      3.39034      70.7099 
-0.000147291      8.58836      64.6284 
1.33233e-05      37.1972      61.3404 
6.14536e-05      28.6154      67.3062 
1.31259e-05      20.3020      56.2473 
6.04664e-05      8.29843      56.0035 
-0.000205709      2.35287      72.1811 
3.61673e-05      35.6832      68.1509 
3.76631e-05      5.49269      77.3807 
3.70953e-05      17.3814      72.3156 
3.72458e-05      3.04421      93.0128 
3.63213e-05      30.3352      58.6994 
1.25248e-05      20.3686      56.3723 
-0.000127559      29.9325      72.5820 
-4.92413e-05      26.0682      69.8967 
2.45349e-05      31.7552      66.8583 
1.26864e-05      29.9172      66.5198 
1.25598e-05      25.4059      55.9096 
3.55376e-05      12.9531      64.3845 
0.000106514      5.39748      78.0239 
-5.87527e-05      11.7864      66.3929 
9.44537e-05      5.48802      53.2971 
1.19703e-05      19.8310      61.5740 
2.38271e-05      3.37236      67.6938 
0.000103854      3.34281      68.9625 
2.31965e-05      24.3186      56.6759 
-7.99662e-05      4.37008      66.2505 
1.16706e-05      14.3791      59.5829 
2.31277e-05      14.4464      72.2674 
-1.15674e-05      28.7138      71.8175 
-1.14592e-05      30.0089      72.6278 
2.26856e-05      2.96432      93.0941 
1.14230e-05      29.9906      66.5807 
1.12636e-05      19.2987      68.8602 
1.12044e-05      12.3421      74.9729 
1.11911e-05      34.3729      59.9739 
1.11727e-05      19.4744      54.0245 
0.00125556      1.52840     -96.0090 
0.000266913      4.55368     -108.435 
-0.000139428      5.46114      31.8274 
0.000212139      4.52902     -107.475 
-0.000173900      5.00688      102.926 
-0.000253275      5.39333      32.2756 
-0.000245538      40.7484     -46.7502 
-0.000113938      56.8777      54.3874 
-3.97924e-05      4.98959      102.031 
-0.000105206      10.6373     -46.2189 
0.000106340      6.84690     -133.580 
0.000200456      28.3635     -140.608 
-0.000201747      36.9601      126.994 
-0.000106042      32.3014     -48.4136 
-0.000102270      11.9907     -61.7251 
0.000100781      50.7955      114.668 
-0.000100535      56.9428      54.4342 
0.000132158      31.9570      14.3493 
3.43935e-05      30.9281     -104.072 
-0.000127407      43.6894     -20.3596 
0.000157221      59.0931      49.7773 
-9.17080e-05      32.2416     -48.3192 
-9.35992e-05      37.1828     -167.070 
6.24769e-05      42.5179     -30.9083 
0.000151389      1.52210     -93.0128 
-0.000121696     0.452548     -135.000 
-0.000122126      27.0477     -116.338 
0.000122253      45.6590      64.4676 
-6.21800e-05      6.48049    -0.707318 
-6.25809e-05      3.04421      176.987 
-3.26072e-05      10.5821     -46.5316 
6.19087e-05      27.0822      21.4871 
-3.23088e-05      37.6827     -48.3564 
3.21716e-05      31.8642     -123.012 
-6.12541e-05      59.6670      56.9278 
9.08239e-05      14.7306     -50.9514 
-9.12173e-05      23.5544     -142.313 
-6.10894e-05      41.7907      131.041 
-8.98424e-05      2.15407     -31.3287 
8.87202e-05      30.8252      110.034 
-3.10720e-05      17.4842     -19.5127 
5.92789e-05      32.1327      8.73532 
3.10626e-05      42.4082     -30.8711 
8.83183e-05      31.8207     -122.891 
-5.92880e-05      9.84878      46.9749 
5.98967e-05      30.3154     -9.26347 
5.89630e-05      36.7333     -161.328 
-8.72838e-05      34.7360     -143.051 
5.88982e-05      27.9029     -159.175 
-5.80592e-05      17.8771     -45.7252 
-5.79385e-05      14.3484      7.04577 
3.00400e-05      9.90483     -126.129 
2.96633e-05      45.0954      35.8331 
-5.74569e-05      13.0402      143.482 
-2.93730e-05      14.8210     -135.000 
-5.70791e-05      40.3201    -0.113682 
-2.93801e-05      38.2644     -42.9667 
2.91495e-05      47.0846      133.348 
2.92383e-05      29.9043     -53.3753 
-2.90532e-05      46.2254      58.3730 
2.90414e-05      5.65799      123.465 
-2.89953e-05      17.4088     -19.6007 
-2.89404e-05      29.0074      13.8829 
-2.87602e-05      15.0827     -60.4436 
-2.87659e-05      50.8176      78.7431 
-2.86349e-05      43.6144     -20.3961 
2.86555e-05      49.5831      136.961 
2.84743e-05      25.2340      138.985 
-2.83133e-05      4.05088     -170.910 
-2.83429e-05      39.4880      143.153 
-2.82791e-05      16.4438     -167.925 
-2.82031e-05      37.6296     -48.4474 
-2.82359e-05      39.8317     -30.2730 
-2.81773e-05      41.7304      131.114 
-2.80166e-05      35.7894      33.5125 
-2.79223e-05      48.2439      106.572 
-2.77506e-05      46.2935      58.4249 

select Q, 1, 8
! Flux (Jy) Radius (mas)  Theta (deg)  Major FWHM (mas)  Axial ratio   Phi (deg) T \
! Freq (Hz)     SpecIndex
0.000821394      6.88046      66.7139 
0.000442247      6.84923      67.3287 
0.00158145      9.27621      66.0877 
0.000494967      6.92312      67.5839 
0.000310596      6.94573      57.2251 
0.000143594      6.96735      68.4429 
0.000138453      6.92266      56.3099 
0.000260468      6.93836      69.0573 
0.000259500      9.23610      65.4328 
0.000566450      6.96735      55.7625 
0.000539509      9.20313      65.8858 
0.000229830      7.01313      69.2910 
0.000105868      7.11640      68.9162 
0.000101348      7.84653      69.7174 
9.75519e-05      6.75467      71.3505 
0.000322698      7.92162      69.9180 
0.000415317      7.01267      55.2222 
9.13193e-05      6.65348      71.7829 
0.000255342      9.16341      65.2249 
0.000378888      6.62891      72.4397 
0.000515469      7.99680      70.1148 
7.44966e-05      9.24407      66.5410 
0.000138877      9.16236      61.8687 
0.000135180      7.05861      54.6888 
6.47050e-05      9.29963      68.2901 
0.000112985      7.07853      55.5915 
0.000173749      6.60521      73.1013 
0.000119034      9.16899      60.7512 
0.000114089      9.34495      68.9273 
0.000292594      7.12404      55.0607 
0.000234367      9.17911      59.6357 
5.13702e-05      4.40581      60.6422 
0.000257825      6.50563      73.5707 
9.52375e-05      9.39140      69.5582 
8.94016e-05      4.44558      59.7436 
4.61493e-05      8.07208      70.3080 
0.000382153      1.58795      40.9144 
0.000173948      7.38474      67.0459 
4.43924e-05      4.59635      58.5232 
4.35246e-05      7.10515      54.1623 
0.000378286      8.14744      70.4976 
0.000187186      9.43898      70.1828 
0.000108182      5.81364      55.6539 
0.000177070      7.17016      54.5366 
0.000159206      5.70249      55.8641 
0.000159312      9.15117      58.9503 
0.000153862      4.48642      58.8610 
-9.89781e-05      35.9516      67.7724 
-0.000208252      15.1538      71.8520 
-0.000120010      35.9214      67.8906 
0.000120363      6.48346      74.2488 
8.75671e-05      2.57123      84.6442 
8.49900e-05      9.41216      70.6410 
5.54967e-05      2.50056      82.6476 
0.000108691      12.8062      75.5297 
-5.40453e-05      25.8560      57.6376 
9.70604e-05      14.4020      66.4253 
-7.99318e-05      10.6475      59.7745 
8.02165e-05      7.23547      54.9042 
-5.38148e-05      29.6998      64.4703 
-5.24535e-05      20.7785      60.4740 
5.56522e-05      10.8812      72.8973 
-2.60295e-05      10.5785      59.5564 
0.000338925      8.72880      70.7347 
0.000143776      5.76888      56.3099 
5.02714e-05      9.11087      69.9739 
4.89269e-05      7.50211      68.0851 
4.64817e-05      9.28862      69.8483 
8.75433e-05      7.42795      67.8548 
4.30539e-05      9.46640      69.7273 
6.92364e-05      9.64423      69.6108 
6.97063e-05      5.74776      55.2040 
3.75272e-05      7.31114      66.8014 
6.99761e-05      4.68803      53.3256 
3.53483e-05      7.05634      57.0306 
3.31169e-05      9.79437      69.9369 
6.05385e-05      7.03363      56.1292 
3.09194e-05      8.65332      70.5600 
3.04893e-05      10.5806      69.6468 
3.02844e-05      4.37667      59.2159 
2.87240e-05      4.33627      60.1240 
4.17488e-05      8.80436      70.9065 
2.70445e-05      10.6373      68.8387 
6.63385e-05      4.72271      51.1886 
-5.12317e-05      22.4925      67.6309 
0.000161384      2.25282      73.4956 
-7.19763e-05      25.5249      57.8043 
2.59035e-05      9.71926      69.7751 
2.54154e-05      10.9577      73.0203 
2.45981e-05      7.24961      67.9638 
-8.48846e-05      20.9380      59.7120 
2.40120e-05      4.25883      61.9908 
9.12894e-05      11.0342      73.1416 
-8.20134e-05      22.4622      67.8197 
2.17794e-05      10.9667      66.8014 
2.13113e-05      8.88000      71.0754 
3.90153e-05      4.22185      62.9494 
-8.43130e-05      25.5926      57.8997 
-5.59966e-05      20.3499      55.2479 
1.90724e-05      5.79379      54.5543 
-0.000133949     0.823651     -150.945 
6.31479e-05      12.9038      75.2745 
1.81699e-05      6.67892      71.1310 
-1.79667e-05      23.4487      59.6732 
1.79283e-05      11.0635      65.6589 
-4.66628e-05      22.4321      68.0089 
8.03376e-05      4.66064      50.5722 
1.65304e-05      11.1694      65.4542 
-0.000172783     0.865332     -146.310 
-4.42013e-05      20.2386      55.3048 
2.91712e-05      4.18607      63.9246 
1.58717e-05      12.9244      74.9315 
1.57688e-05      2.23141      75.4655 
-4.12457e-05      21.0071      59.8221 
2.87721e-05      14.2651      66.8858 
-1.49700e-05      23.3238      59.0362 
6.73077e-05      2.30894      75.9638 
6.57752e-05      1.12285      85.9144 
1.45434e-05      11.2029      65.0820 
-1.39597e-05      29.7321      63.9865 
-2.66918e-05     0.787909     -23.9625 
-2.41625e-05      24.4379      67.8851 
-4.49134e-05      29.7673      63.8481 
5.59810e-05      14.2967      66.5909 
-2.27891e-05      23.3382      58.5984 
-2.42955e-05      22.4023      68.1986 
-1.25514e-05      20.0819      55.5503 
-0.000102756     0.758947     -18.4349 
-3.06468e-05      24.3941      67.6403 
-4.01375e-05      25.6604      57.9946 
-4.44476e-05      19.6367      56.6336 
1.17629e-05      13.0017      75.0232 
6.92058e-05      16.2219      73.0842 
1.14717e-05      11.2712      64.3443 
8.88103e-05      2.38663      76.4296 
-3.00894e-05      27.5954      66.7796 
9.70621e-05      1.04307      85.6013 
-1.13485e-05      5.01199      81.7406 
1.09802e-05      4.07922      64.4400 
-2.13305e-05      4.93283      81.6071 
1.09613e-05      9.56928      69.4440 
-1.09592e-05      21.6118      70.0894 
-2.03090e-05      20.9670      60.0111 
-6.67597e-05      34.6976      59.0589 
-4.17163e-05      5.02410      80.8377 
2.00268e-05      4.15153      64.9164 
4.71824e-05      36.6485      64.9453 
-2.80188e-05      21.5847      70.2890 
3.75196e-05      31.8368      70.0169 
-9.13183e-05      4.94514      80.6901 
1.94074e-05      14.3287      66.2974 
2.73377e-05      4.11825      65.9245 
-9.80116e-06      19.5928      56.8290 
-3.62680e-05      17.7847      71.6466 
1.78576e-05      9.33535      72.0309 
-3.57059e-05     0.912140     -142.125 
-9.30996e-06      19.5259      56.7006 
9.18483e-06      12.4193      51.8013 
-1.73740e-05      19.4821      56.8972 
8.87412e-06      6.55268      72.2287 
8.30791e-06      32.2712      63.1809 
0.000130947      13.3492      76.1303 
1.58232e-05      6.92451      49.6859 
1.49443e-05      6.86370      49.2538 
1.41201e-05      6.74329      48.3665 
0.000158671      6.68371      47.9108 
0.000157253      14.6105      75.7355 
0.000126902      29.7799      72.4899 
-9.91553e-06      23.5988      59.4360 
-9.35198e-06      23.6272      59.7017 
-8.82441e-06      20.1743      57.6334 
-8.46170e-06      23.7255      60.0634 
-8.12307e-06      19.5300      57.5468 
-7.85776e-06      19.0208      57.7136 
-7.62160e-06      27.7691      59.1495 
-7.51054e-06      18.8002      57.8654 
-7.19631e-06      18.6899      57.9426 
-7.14472e-06      27.9066      59.3179 
-6.88381e-06      18.5796      58.0208 
-6.72814e-06      27.9754      59.4015 
-6.59853e-06      18.2913      58.0477 
-6.37094e-06      24.6213      62.1027 
-1.22901e-05      18.0710      58.2097 
-1.78161e-05      30.3352      58.6994 
6.14087e-06      32.7435      66.3786 
5.97907e-06      32.7756      66.2505 
-5.79987e-06      17.9608      58.2922 
1.11861e-05      29.7036      72.4435 
5.67693e-06      32.8079      66.1226 
-1.63392e-05      33.8472      58.8272 
-5.59959e-06      17.9189      58.5098 
5.51474e-06      32.8404      65.9950 
-5.47883e-06      25.3311      62.9494 
-1.06202e-05      17.8089      58.5948 
5.29650e-06      32.8730      65.8676 
5.14876e-06      32.9058      65.7405 
-0.000146690      31.4404     -22.9114 
0.000129867      40.4079      128.004 
8.96522e-05      42.0438      15.6758 
0.000120624      16.3169     -48.1798 
-6.74624e-05      29.7294      156.194 
-6.90108e-05      41.7906      25.8783 
-1.81829e-05      18.1108      30.5297 
-3.50152e-05      36.5608      43.2267 
6.63209e-05      35.5676      101.285 
3.34581e-05      2.37857     -47.7263 
-4.84179e-05      18.0703      30.3112 
-3.24280e-05      52.5295      68.2796 
-4.65580e-05      16.3110     -84.6529 
3.21694e-05      42.0222      15.5708 
3.18440e-05      59.0518      50.5522 
3.15095e-05      11.9275     -29.3159 
-1.60848e-05      36.5060      43.1352 
3.05647e-05      18.1558      122.219 
3.11197e-05      37.2791     -148.425 
-3.08300e-05      4.76923     -112.694 
-3.08710e-05      41.2803      53.3522 
1.57137e-05      41.4774      92.4319 
3.06540e-05      24.7376      121.377 
-3.02937e-05      30.8638      118.824 
-1.55628e-05      2.21847     -154.359 
3.03921e-05      2.32000     -46.3972 
1.55318e-05      32.8625      18.3026 
3.03514e-05      25.2162     -167.728 
-1.53842e-05      33.7023      40.5718 
1.53990e-05      27.4167      75.6394 
-2.98333e-05      41.7537      26.0250 
-2.98189e-05      52.0168      121.735 
1.51586e-05      40.2956      127.985 
-1.51788e-05      32.6401     -67.5206 
-1.49886e-05      35.1397     -161.276 
1.49703e-05      13.0380     -169.035 
1.48556e-05      24.8805      85.3894 
1.48344e-05      12.5664     -155.556 
1.48380e-05      41.4808      92.5424 
1.48289e-05      34.2251     -45.4735 
-1.47710e-05      22.6846     -68.0485 
-1.47733e-05      52.5000      68.3607 
1.47469e-05      42.8371      110.669 
-1.47998e-05      33.6416      40.6604 
-1.46627e-05      11.2826      119.291 
1.45898e-05      59.1026      50.4923 
-1.46099e-05      49.1098      80.8139 
1.45128e-05      19.2939     -170.694 

select U, 1, 8
! Flux (Jy) Radius (mas)  Theta (deg)  Major FWHM (mas)  Axial ratio   Phi (deg) T \
! Freq (Hz)     SpecIndex
-0.000547243      9.21251      66.9974 
-0.00136216      9.18155      67.4569 
-0.000283665      6.67892      55.7389 
-0.000681834      6.79011      55.5610 
0.000424569      7.42795      67.8548 
-0.000187871      9.17074      66.3420 
-0.000268499      6.85624      55.9391 
0.000179419      7.32382      68.1986 
-0.000605254      8.94177      56.3099 
0.000977051      7.35391      67.6199 
-8.58106e-05      9.09224      68.8539 
-0.000159228      10.4000      59.4898 
-0.000432630      6.96735      55.7625 
-0.000153527      9.06369      69.3256 
-0.000272704      10.5506      58.9617 
-0.000193809      9.03575      69.8002 
-0.000366805      7.03363      56.1292 
-0.000316380      8.87531      56.0235 
-0.000116414      10.5921      58.5909 
-5.63684e-05      9.00844      70.2777 
-0.000232225      1.29244      21.8014 
-5.43737e-05      9.12316      63.4349 
-0.000153354      10.7021      58.4486 
-9.95014e-05      8.98176      70.7581 
0.000181025      7.24961      67.9638 
-4.63148e-05      9.87506      64.0577 
-5.85654e-05      9.98591      61.7925 
-0.000229765      10.0565      62.0079 
-0.000100606      9.94835      62.1985 
-4.64724e-05      9.00062      59.5603 
-4.32146e-05      8.93174      59.3003 
-4.02260e-05      8.90447      58.5948 
-3.74913e-05      8.83629      58.3245 
-0.000100752      13.7125      55.9391 
-3.53344e-05      10.1272      62.2204 
-6.71646e-05      8.81090      57.6086 
-5.14340e-05      18.6221      57.8120 
-3.20013e-05      10.0536      63.0272 
-0.000162438      18.6649      57.6041 
-8.49052e-05      9.64423      69.6108 
-0.000104979      8.74345      57.3278 
0.000106853      16.4218      72.7126 
-2.80831e-05      8.72000      56.6015 
0.000211204      3.04421      93.0128 
-7.98486e-05      7.12404      55.0607 
-2.71752e-05      13.6915      55.4742 
5.21888e-05      4.55087      79.8753 
0.000211848      7.21997      68.5523 
-2.62973e-05      20.3020      56.2473 
-2.53831e-05      10.2027      61.4254 
-4.77357e-05      9.33535      72.0309 
-4.61480e-05      20.3466      56.0600 
-9.36366e-05      7.18977      55.4258 
0.000203213      16.4458      72.4465 
0.000206382      4.61649      81.0274 
-6.48982e-05      9.71926      69.7751 
-2.34490e-05      18.7079      57.3973 
-0.000110352      20.4130      56.1854 
-4.33733e-05      8.86305      59.0362 
-2.23391e-05      13.6463      55.7510 
-9.18132e-05      22.0343      57.0023 
-2.17629e-05      10.6192      59.1843 
-4.09541e-05      8.65332      56.3099 
-0.000154719      7.07853      55.5915 
-2.14531e-05      8.95571      71.2413 
8.10128e-05      6.58240      69.3625 
-5.50215e-05      8.88000      71.0754 
-1.93727e-05      18.9264      56.3771 
-6.85819e-05      9.79437      69.9369 
-1.87180e-05      10.6604      58.8150 
-6.64968e-05      8.58687      56.0138 
0.000115425      6.50760      69.1142 
-6.68810e-05      30.6253      63.3011 
-1.79284e-05      8.92063      60.4463 
4.82948e-05      19.6064      63.8532 
-1.69437e-05      6.10207      55.6849 
-4.70616e-05      31.6716      66.4784 
-3.23675e-05      10.8121      58.3092 
-6.30250e-05      4.31259      49.5140 
-1.64675e-05      18.5796      58.0208 
-3.12584e-05      8.80436      70.9065 
3.17069e-05      16.3549      64.8138 
-1.59554e-05      32.9111      67.1123 
-3.04986e-05      9.82210      69.4986 
-2.98784e-05      19.0603      55.7763 
-1.57294e-05      7.14468      55.9541 
1.55837e-05      16.6968      71.5650 
-1.55971e-05      5.99093      55.8855 
-1.52911e-05      13.6256      55.2836 
-1.51105e-05      37.2962      65.1390 
-1.49978e-05     0.452548      45.0000 
-1.47599e-05      26.7922      60.6795 
1.46873e-05      16.4273      64.9325 
-1.48215e-05      18.4273      58.3110 
1.44410e-05      2.96432      93.0941 
1.44434e-05      16.7727      71.6515 
0.000262466      16.3750      73.2471 
-1.70225e-05      25.6290      58.7909 
-1.61163e-05      25.4507      58.7583 
-3.09491e-05      19.2421      54.9885 
-1.47812e-05      25.6562      59.0362 
-6.69386e-05      19.1963      55.1840 
-1.39836e-05      32.2718      66.1673 
-1.35267e-05      25.7935      59.2191 
-1.32038e-05      32.4183      66.2816 
-3.68304e-05      9.01696      62.5256 
-1.25146e-05      32.3450      66.2246 
-1.22967e-05      25.9311      59.4000 
-7.42657e-05      19.1508      55.3805 
-3.37868e-05      32.4915      66.3383 
-4.31466e-05      8.98033      62.9784 
-3.13898e-05      26.0690      59.5790 
6.93475e-05      14.6105      75.7355 
-1.98613e-05      32.5969      66.2659 
-1.84182e-05      13.2810      53.8204 
-9.73578e-06      8.94427      63.4349 
-2.73624e-05      9.01590      63.6623 
-3.35413e-05      32.6702      66.3224 
-4.13213e-05      19.1054      55.5780 
-8.80653e-06      26.0977      59.8194 
-1.63672e-05      8.98069      64.1197 
-8.11011e-06      26.1669      59.9075 
-1.49672e-05      32.7435      66.3786 
2.98365e-05      24.5146      71.1512 
-7.73802e-06      8.94606      64.5807 
-7.71148e-06      26.1268      60.0593 
-7.63696e-06      13.3456      54.0231 
-7.41623e-06      9.01838      64.7989 
-7.34084e-06      26.1962      60.1466 
-1.40471e-05      8.98461      65.2605 
-6.97836e-06      26.1565      60.2986 
-0.000120204      18.5919      129.237 
-0.000158798      3.86657     -114.444 
0.000193790      5.30961     -96.0542 
0.000129682      19.3795     -19.0333 
6.70490e-05      32.7341      175.655 
6.44292e-05      46.7767      18.6519 
4.43757e-05      15.1420     -49.0704 
-4.30364e-05      53.2304     -34.0961 
-6.18096e-05      42.5507     -27.9141 
8.21445e-05      44.4072     -144.162 
-8.16139e-05      30.3854      103.707 
8.02563e-05      3.72150      115.463 
-6.11789e-05      58.4683      40.2272 
-4.18830e-05      43.8251     -21.4130 
-6.04648e-05      20.8334      159.547 
6.03703e-05      30.6919     -173.264 
-3.97050e-05      53.8623      39.0319 
2.09051e-05      16.0951     -31.7941 
-4.05671e-05      3.72924     -144.605 
2.06691e-05      39.2050      110.173 
-5.81399e-05      43.8828      94.2865 
-3.95577e-05      18.6426      129.428 
3.90380e-05      32.7281      175.795 
3.86347e-05      15.0897     -49.2999 
-1.97220e-05      18.2051      85.9682 
-1.94886e-05      25.9205     -142.776 
-3.76935e-05      41.4891     -18.4350 
3.77026e-05      59.0661      121.430 
-3.77498e-05      34.8393     -149.961 
-1.92760e-05      53.1641     -34.1444 
-1.92708e-05      31.0732      102.641 
-1.90613e-05      20.1614     -90.6821 
1.89772e-05      39.1775      110.063 
1.89386e-05      33.6065     -134.036 
1.88676e-05      8.80909      2.60256 
1.87622e-05      40.7907      45.8741 
-1.87242e-05      45.1441     -15.4154 
1.87648e-05      46.8782      18.7132 
-1.84651e-05      18.2849      85.9858 
-1.82827e-05      16.8694     -119.239 
-1.82350e-05      4.33184     -4.23639 
-1.81516e-05      3.74977     -146.310 
1.81916e-05      16.0531     -31.5514 
