select I, 1, 8
! Flux (Jy) Radius (mas)  Theta (deg)  Major FWHM (mas)  Axial ratio   Phi (deg) T \
! Freq (Hz)     SpecIndex
  0.316088    0.0199996     -90.0000 
  0.236342      0.00000      0.00000 
 0.0641928     0.277849     -120.256 
 0.0619761     0.100000      53.1301 
 0.0595573     0.377359     -122.005 
 0.0578780     0.172047      54.4623 
 0.0557966     0.421900     -121.430 
 0.0543637     0.188680      57.9946 
  0.101915     0.449444     -122.276 
 0.0512144     0.216333      56.3100 
 0.0939309     0.233238      59.0363 
 0.0467249     0.466476     -120.964 
 0.0860024     0.493963     -121.759 
 0.0431844     0.250599      61.3895 
 0.0408826     0.260768      57.5288 
 0.0771916     0.511077     -120.579 
 0.0755091     0.277849      59.7435 
  0.101583     0.528393     -119.476 
 0.0994169     0.295297      61.6992 
 0.0305068     0.555698     -120.256 
 0.0852138     0.313050      63.4349 
 0.0565460     0.545894     -118.443 
 0.0261939     0.573062     -119.249 
 0.0256461     0.304631      66.8014 
 0.0711440     0.563560     -117.474 
 0.0907001     0.323110      68.1986 
 0.0974211     0.581378     -116.565 
 0.0744571     0.341760      69.4440 
 0.0763655     0.599333     -115.710 
 0.0164470     0.360555      70.5600 
 0.0446773     0.354401      73.6105 
 0.0283674      2.12085      69.0013 
 0.0132791     0.373631      74.4759 
 0.0791506     0.590931     -113.962 
 0.0251782      2.10219      68.8059 
 0.0244561     0.392938      75.2564 
 0.0115111      2.09504      69.3159 
 0.0218334     0.412311      75.9638 
 0.0108749      2.07634      69.1210 
 0.0199431     0.609262     -113.199 
 0.0199448      2.05767      68.9225 
 0.0195572     0.431741      76.6075 
 0.0177979      2.03902      68.7204 
0.00905525     0.447214      79.6951 
 0.0248084     0.583095     -112.166 
 0.0245188     0.466905      80.1342 
0.00819779      2.02040      68.5145 
0.00773470      1.99449      68.8387 
0.00757414     0.538516     -111.801 
 0.0144415     0.486621      80.5377 
 0.0142815      1.97585      68.6294 
0.00724733     0.680294     -114.305 
0.00697928     0.373631     -105.524 
0.00672781     0.804984     -116.565 
0.00670055     0.509902      78.6901 
0.00659140      1.95724      68.4160 
0.00648326     0.329848     -104.036 
 0.0181878     0.529528      79.1145 
 0.0121826     0.849706     -116.565 
 0.0229940      1.93866      68.1986 
0.00606068     0.310483     -104.931 
0.00568231     0.305941     -101.310 
 0.0107016     0.876584     -117.150 
0.00547381     0.549181      79.5085 
 0.0149920     0.286356     -102.095 
 0.0148725     0.568859      79.8753 
 0.0304540      6.55649      60.3852 
0.00500472      1.89410      68.3109 
0.00940580     0.903548     -117.699 
0.00474516      2.22468      67.8160 
0.00454869      1.80499      68.5523 
0.00870662     0.565686      81.8699 
0.00439570     0.282843     -98.1301 
0.00433462      2.27693      67.2640 
 0.0189366     0.921303     -117.121 
0.00421122      1.74184      68.4429 
0.00797104     0.263059     -98.7461 
0.00787963     0.585491      82.1467 
0.00397414      2.29539      67.4569 
0.00390799      1.72325      68.1986 
0.00369646      2.32155      67.1903 
0.00365074     0.243310     -99.4622 
0.00361229     0.583095      84.0938 
0.00359109      1.69729      68.5747 
0.00995148      6.54663      60.5374 
0.00663862      2.34777      66.9296 
0.00624389     0.220907     -95.1941 
0.00341293     0.605310      82.4053 
0.00335370      1.66012      68.0704 
0.00324788     0.561427      85.9144 
0.00621781     0.240832     -94.7635 
0.00610842     0.939148     -116.565 
0.00312928      1.64158      67.8097 
0.00596617     0.560357      87.9546 
0.00299183      2.36618      67.1194 
0.00297857      6.57389      60.4713 
0.00293365      1.59700      67.9321 
0.00291367      5.93303      61.6208 
0.00281448      6.80485      60.7982 
0.00783524     0.930376     -115.463 
0.00279762      2.39240      66.8643 
0.00788882      1.56000      67.3801 
0.00276592      5.91544      61.5287 
0.00273845     0.503587      96.8427 
0.00269041      7.00723      61.5331 
0.00263746      5.90593      61.6992 
0.00261910      2.41081      67.0511 
0.00260871     0.164924     -104.036 
0.00260534     0.817068      68.4590 
0.00257028      6.68063      60.5955 
0.00252392     0.412311      112.834 
0.00477733     0.921954     -114.341 
0.00251684      7.13896      62.2863 
0.00249853      5.87074      61.5142 
0.00245195      2.41868      66.6148 
0.00243197     0.240000     -90.0000 
0.00240526      6.51939      60.6039 
0.00240634     0.869253      66.9745 
0.00238518      7.16517      62.5766 
0.00236706     0.377359      122.005 
0.00235211      5.83562      61.3269 
0.00232475      1.56780      66.7054 
0.00229861      2.43705      66.8014 
0.00226467      7.12968      62.4286 
0.00225656     0.356090      128.157 
0.00225537      6.44748      60.6519 
0.00221800     0.302655     -82.4052 
0.00430155      5.77339      61.2153 
0.00218896     0.903770      65.1363 
0.00217113      1.59411      66.3295 
0.00215724      7.17376      62.7920 
0.00418141      2.44499      66.3706 
0.00604895     0.948472     -114.944 
0.00212410     0.388330      124.508 
0.00212528      6.47472      60.5844 
0.00399952     0.325576     -79.3803 
0.00204608      7.18245      63.0068 
0.00204032      1.55756      65.7387 
0.00201791     0.421900      121.430 
0.00200375      6.50197      60.5174 
0.00381630     0.912360      63.9966 
0.00196188      5.79893      61.5788 
0.00194379      7.19122      63.5775 
0.00190870      1.60112      64.0751 
0.00190335      2.46333      66.5571 
0.00189680     0.432666      123.690 
0.00189169      6.52923      60.4510 
0.00185752      5.93030      62.9164 
0.00185156      7.20944      64.0036 
0.00181288      1.64596      62.5009 
0.00180445     0.412311      129.094 
0.00512495     0.940213     -113.839 
0.00324096      2.47136      66.1317 
0.00177753      6.60115      60.4058 
0.00176543      5.71118      61.1013 
0.00176424     0.354401     -73.6104 
0.00175543      7.21002      64.3590 
0.00171846     0.428019      127.405 
0.00171262      6.02847      63.6050 
0.00171201      1.63768      61.5571 
0.00168220      2.49776      65.8978 
0.00167829      7.67317      60.8294 
0.00166831      6.67308      60.3616 
0.00166545     0.948262      62.3540 
0.00466531     0.379473     -71.5651 
0.00164679      7.19389      65.0024 
0.00163500      4.81502      65.4576 
0.00315083     0.456070      127.875 
0.00162315      6.00203      64.1180 
0.00161122      1.69446      59.5002 
0.00294674      2.48966      66.3179 
0.00157102      7.18546      65.1469 
0.00156286     0.930591      61.7826 
0.00156224      6.54171      59.9075 
0.00155454      4.97562      65.2892 
0.00154478      7.71785      60.8444 
0.00153195      5.97609      64.6356 
0.00151723      1.74264      58.1340 
0.00294301     0.932309     -112.714 
0.00150691      4.37817      66.0109 
0.00149657      5.53075      61.4888 
0.00147222      7.18693      65.5033 
0.00147329     0.913017      61.1892 
0.00147164      6.62375      59.7187 
0.00513577     0.453431      131.424 
0.00143586      6.00377      64.9716 
0.00143812      4.96729      65.4988 
0.00278939      1.75328      57.5789 
0.00142231      7.76253      60.8594 
0.00139608      4.26244      66.2013 
0.00139292      7.18869      65.8595 
0.00138607      6.65111      59.6568 
0.00138541     0.895545      60.5725 
0.00137444     0.398497     -72.4744 
0.00136338      5.14471      64.9293 
0.00135814      6.00513      65.3981 
0.00134453     0.924770     -111.571 
0.00133465      7.78000      60.9311 
0.00131346      7.19881      66.0698 
0.00131147      6.62679      59.3328 
0.00130609      4.19142      66.3706 
0.00130141     0.905539      59.4703 
0.00129489      5.10972      65.2405 
0.00129749     0.386264     -68.7495 
0.00128557      5.78342      58.2887 
0.00127935      1.68024      81.0983 
0.00490365     0.468615      129.806 
0.00126909      2.51603      66.0838 
0.00126697      6.00683      65.8244 
0.00245396     0.950789     -112.249 
0.00351020      1.74734      56.6737 
0.00125050      7.01544      60.0728 
0.00124612      7.81499      61.0736 
0.00122160      5.02195      65.7827 
0.00122452     0.915860      58.3925 
0.00237042      7.22734      66.3434 
0.00121312      6.48968      58.6123 
0.00121368      4.14676      66.4023 
0.00327119     0.404969     -69.7751 
0.00119198      5.99867      65.9987 
0.00229451      2.53432      66.2671 
0.00116612      5.04020      65.8759 
0.00116308      7.49795      59.1935 
0.00115802      1.68962      83.8845 
0.00425940     0.898888      57.7244 
0.00114521      6.49360      58.2191 
0.00114136      3.98648      66.6504 
0.00298667     0.423792     -70.7099 
0.00112936      6.00886      66.2505 
0.00111925      5.75378      57.6357 
0.00111676     0.943398     -111.125 
0.00111589      4.92666      66.5571 
0.00110569      7.86755      61.2849 
0.00109444      1.70751      84.6233 
0.00108953      6.90159      59.7197 
0.00108417      7.23768      66.5519 
0.00107232      6.04549      66.4032 
0.00105975     0.917605     -110.410 
0.00105248      4.97932      66.3179 
0.00105165      3.94979      66.4205 
0.00104913      6.43640      57.6927 
0.00104463      2.55265      66.4477 
0.00103876      7.38477      58.8500 
0.00102698      7.92023      61.4935 
0.00102388      7.22974      66.6973 
0.00101925      1.72569      85.3466 
0.00100800      6.05587      66.6523 
0.00100763      5.12788      65.3341 
0.00100571      3.82382      66.2505 
0.000999051     0.472017      126.384 
0.000993949      6.44711      57.5424 
0.00274941      1.92042      54.3236 
0.000977002      7.34392      58.4743 
0.000975526      4.73544      67.6594 
0.00188814     0.936376     -109.983 
0.000971619      5.75847      57.1930 
0.00278098      8.64308      67.4107 
0.000962841      7.26650      66.8221 
0.000964081      6.11889      66.7030 
0.00175119      2.54472      66.8605 
0.00166823      3.77915      66.2838 
0.000940166      7.97300      61.6992 
0.000937143      1.72290      86.6726 
0.00168896     0.909726      56.6593 
0.000933131      5.05035      66.1757 
0.000923374      6.47472      57.4881 
0.000916432      7.28489      66.8840 
0.000918651      6.11101      66.8753 
0.00251507      2.56312      67.0362 
0.000903437      7.26532      58.2788 
0.000897579      4.75395      67.7510 
0.00165978      3.76085      66.1613 
0.00255113     0.882043      57.0306 
0.000883638      7.96354      61.8259 
0.00167328      6.16354      66.6793 
0.000873642      7.27706      67.0289 
0.000872005      1.74287      86.7108 
0.000863798      5.70319      57.3131 
0.00503150     0.442719     -71.5650 
0.000858842      4.75752      68.2880 
0.000856623      7.20378      58.1632 
0.000853069      6.41829      56.9537 
0.00164216      8.62462      67.3597 
0.00163261     0.962081     -110.695 
0.000839654      3.71430      65.5050 
0.000837152      6.12940      66.9487 
0.000840412      5.19792      64.7167 
0.000832420      9.20984      66.7197 
0.00409603     0.466905      133.264 
0.000822716      7.99882      61.9612 
0.000812976      7.29548      67.0902 
0.000808123      1.74184      87.3676 
0.000805723      4.67970      68.6988 
0.000806016      7.21435      58.0283 
0.00149088      3.69611      65.3764 
0.00154045      1.71406      55.9391 
0.000790730      6.32367      56.6115 
0.000786569      5.22383      64.1217 
0.000784500      9.23613      66.6548 
0.000775697      8.03415      62.0953 
0.00147146      7.30616      67.2957 
0.000763230      6.43546      65.5855 
0.00146382      7.23561      57.7596 
0.000754395      4.75891      69.5849 
0.000751396      8.60616      67.3084 
0.00386678     0.987927     -111.371 
0.000744687      5.93539      67.4098 
0.000739559      5.76351      56.7511 
0.00145770      9.25449      66.7039 
0.000739742      1.78045      88.7127 
0.000738971      8.10590      62.0439 
0.000729452      5.21463      63.8281 
0.000721913      2.57099      66.6258 
0.000720078      6.35138      56.5601 
0.000714551      8.79811      61.3376 
0.000715582     0.904434      54.9042 
0.00137430      4.73160      70.4928 
0.000706567     0.955196     -109.573 
0.000705623      6.39262      66.0011 
0.000694562      1.69753      55.5610 
0.000693607      8.56927      67.2053 
0.000689601      8.06119      62.0362 
0.00129707      2.57387      67.6199 
0.000683877      5.20557      63.5334 
0.000683965      6.01694      67.5266 
0.000679423      1.78011      89.3562 
0.000679937      9.27286      66.7527 
0.00306863     0.888144      54.1623 
0.000673755      6.24593      56.3608 
0.000669218      7.21870      57.6749 
0.00379919     0.980816     -110.283 
0.000665758      7.31694      67.5006 
0.000659423      3.51710      75.1735 
0.00127101      8.56154      67.3287 
0.000657371     0.430813     -68.1986 
0.000654211      6.03543      67.5992 
0.00126061      1.94402      53.3659 
0.000653189      2.58155      67.2094 
0.000648607      8.76304      61.2121 
0.00116628      5.19665      63.2377 
0.000643350      9.31751      66.7368 
0.000641685      8.08002      61.7857 
0.000637417      1.80011      89.3634 
0.000635088      5.79662      56.2551 
0.000631201      6.54306      65.6285 
0.000630672      3.52477      62.2717 
0.000629374      7.22941      57.5410 
0.00120607      7.32781      67.7049 
0.000623819      4.71190      71.1805 
0.000620847      4.04717      66.0950 
0.00115678      6.31804      56.3602 
0.00119827      9.33589      66.7853 
0.000606457      6.00933      67.7028 
0.000604648      5.16991      63.8315 
0.000601819      8.14236      61.8613 
0.000597744      1.80000      90.0000 
0.000595163      8.77268      61.0976 
0.000591369      3.46341      75.9638 
0.000590984      7.24017      57.4074 
0.00152993     0.449444     -69.1455 
0.00109022      2.59237      67.7882 
0.000582875      6.48198      65.9657 
0.00111551      3.51648      61.8317 
0.000577760      4.74342      71.5650 
0.000573115      5.86328      55.9847 
0.00235770     0.452548      135.000 
0.00158090      8.55385      67.4523 
0.000570347      5.95718      67.9128 
0.000567361     0.461736     -72.3498 
0.000565019      8.09901      61.5363 
0.00153158      1.95602      52.8958 
0.000560333      7.19569      57.3700 
0.000560325      3.48282      76.0436 
0.00156825      7.33877      67.9086 
0.000554073      2.58488      68.1986 
0.00108385      9.36216      66.7211 
0.000555268      5.14315      63.9332 
0.000551410      4.10000      65.8105 
0.00166822      1.86011      90.6161 
0.000548882      8.75518      61.0344 
0.000539781      4.74995      72.0991 
0.000539886      6.00177      67.8795 
0.00101940      8.10856      61.4121 
0.000525319      7.22332      57.3220 
0.000525699      1.66469      54.7824 
0.000527328      2.58898      69.1849 
0.000907080      6.54492      66.0197 
0.000520661     0.884082      52.3524 
0.000513191      4.08176      65.6955 
0.000509232      6.21266      56.1565 
0.000508318      8.76488      60.9200 
0.000994003      9.38844      66.6572 
0.000505095      3.42987      76.8551 
0.00136817      8.54620      67.5761 
0.000503298      5.97572      67.9849 
0.000501730      5.17876      63.6329 
0.00161184      4.73781      72.5594 
0.00130669     0.868332      51.5463 
0.000492717      7.21734      57.1026 
0.000484015      5.76340      56.0342 
0.000480938      6.52665      65.9484 
0.00211079     0.468188     -70.0169 
0.000480584      3.52596      61.5452 
0.000474111      5.94969      68.0913 
0.000473498     0.872009      53.3929 
0.00125489      3.40588      77.1063 
0.000470089      4.72479      72.2553 
0.000470011      8.74741      60.8563 
0.000468251      2.55225      74.5480 
0.000465694      8.10062      61.2202 
0.000467078      7.20056      57.0162 
0.000465124      7.33128      68.0535 
0.000459353      9.41473      66.5936 
0.000458205      6.25703      56.2083 
0.000457873      4.09004      65.4401 
0.000455593      5.16980      63.3358 
0.000453214      2.63036      64.7989 
0.000448818      5.99426      68.0566 
0.000866990      1.88011      90.6095 
0.00172111      1.64839      54.3815 
0.000443170      9.40681      66.7054 
0.000894024     0.852760      50.7106 
0.00125388      5.17880      63.1381 
0.000440556      8.70274      60.8431 
0.000532098      3.38638      77.0307 
0.000435130      7.22822      56.9695 
0.000433988      5.80238      55.8170 
0.000433476      8.12778      61.1645 
0.000430994      2.56125      75.5297 
0.00183010      3.53553      61.2602 
0.000842408      7.32382      68.1986 
0.000430301      6.04635      67.8467 
0.000423870      9.44104      66.5305 
0.000664002      6.61601      65.9144 
0.000419960      4.11655      65.3026 
0.000416537      6.32914      56.2095 
0.00109951      1.96815      52.4314 
0.000412939      2.65646      63.6279 
0.000411156      7.21146      56.8829 
0.000410009      8.15495      61.1092 
0.000405113      4.74384      72.3289 
0.000404528      9.44902      66.4192 
0.000402822      5.94226      68.2702 
0.000775053      8.72995      60.7924 
0.000740775      5.19700      62.7447 
0.00143532      8.53860      67.7002 
0.000392603      1.90011      90.6031 
0.000391225      5.77460      55.8696 
0.000390202      9.46735      66.4677 
0.000389976      4.16125      65.2826 
0.000387203      2.60000      75.7500 
0.000385742      7.17799      56.7084 
0.000385711      7.29784      68.2861 
0.000383969      8.13744      61.0411 
0.00135933     0.453431      138.576 
0.000379790      4.75689      72.6316 
0.000378260      2.63894      62.4639 
0.000377123      5.91628      68.3784 
0.000373019      6.28478      56.1582 
0.000372480      9.47536      66.3568 
0.00134171      5.18787      62.9410 
0.000371220     0.865564      49.6859 
0.000366793      1.92010      90.5968 
0.000366637      7.20569      56.6628 
0.000365708      7.31642      68.3440 
0.000703301      6.03884      68.0224 
0.000359163      2.61939      75.8576 
0.000358415      8.16463      60.9863 
0.000355532      9.48340      66.2461 
0.000353361      6.24042      56.1062 
0.000351157      7.19472      56.7959 
0.000351737      3.42538      77.1809 
0.000349823      7.27186      68.3742 
0.000960783     0.475394     -67.7509 
0.000348715      4.12495      65.0502 
0.000944513      8.71250      60.7282 
0.000344525      2.66593      62.2815 
0.00229028      1.92042      91.1935 
0.000669468      9.51786      66.0742 
0.000633202     0.995389     -112.443 
0.000336214      6.63427      65.9849 
0.000335972      5.75806      55.7580 
0.000331551     0.850412      48.8141 
0.000330728      8.19183      60.9318 
0.000331220      7.30906      68.4897 
0.000937405      7.21670      56.5301 
0.000609998     0.493963     -68.6293 
0.000613150      3.40147      77.4346 
0.000326663      2.57573      76.0717 
0.000815652      1.00319     -113.499 
0.000323779      5.96084      68.3414 
0.000320201      6.26817      56.0564 
0.000320016      2.66721      61.3210 
0.000609902      4.12393      64.4291 
0.000315646      9.54426      66.0131 
0.00115725     0.837377      49.8440 
0.000312101      7.28313      68.5784 
0.000789381     0.466905      136.736 
0.000310228      6.56320      66.0907 
0.000308155      8.16666      60.6728 
0.00110057      4.73185      72.7904 
0.000303746      8.55710      67.7510 
0.000303667      5.93488      68.4496 
0.000304112      3.35809      77.6192 
0.000586126      7.29449      68.7820 
0.000509668      1.94041      91.1812 
0.000300875      2.65767      61.6992 
0.000577510      9.57883      65.8432 
0.000538233      8.72229      60.6136 
0.000564639      5.21544      62.3540 
0.000551848      6.22383      56.0035 
0.000529982      2.60538      77.1372 
0.000291390      9.58703      65.7341 
0.000288739      8.49400      67.7226 
0.000545496      6.00540      68.3049 
0.000787193      1.98040      51.9728 
0.000284742      8.21133      60.6879 
0.000283789      5.70249      55.8641 
0.000280454      7.20003      56.4424 
0.000280463      3.27536      61.5571 
0.000538189      1.01134     -114.538 
0.000274813      6.03138      68.1986 
0.000273937      2.60990      76.7092 
0.000679085      6.25159      55.9541 
0.000273499      9.01370      68.3875 
0.000513303     0.468615      140.194 
0.000269981      6.60787      66.0727 
0.000268895      4.14198      64.5485 
0.000506163     0.483322     -65.5560 
0.000525795      7.30594      68.9850 
0.000267072      8.43851      67.5682 
0.000266716      2.66923      60.3616 
0.000521408      9.63836      65.3494 
0.000511753      8.22114      60.5663 
0.000510444      7.22775      56.3979 
0.000263362      3.38195      77.3609 
0.000260095      3.54519      60.9768 
0.000481717      8.73973      60.6780 
0.000256150      5.18845      62.4472 
0.000255173     0.501597     -66.5014 
0.000255619      2.62937      76.8094 
0.000250859      8.46792      67.7965 
0.000249710      4.15061      64.2993 
0.000665662     0.822193      48.9452 
0.000248056      9.09545      68.4559 
0.000800508      5.68595      55.7510 
0.000679917      5.97943      68.4121 
0.000470858      3.42099      77.5075 
0.000474586      7.28011      69.0755 
0.000241632      2.67918      59.9899 
0.000475544      9.65511      65.1337 
0.000531515      3.31059      61.8868 
0.000374363     0.820731      46.9749 
0.000233245      7.21110      56.3099 
0.000232363      8.39390      67.5902 
0.000228490      8.21360      60.3762 
0.000608847      4.69366      72.6460 
0.000228618      9.04358      68.5986 
0.000227378      4.11437      63.4349 
0.000645540     0.491935     -63.4349 
0.000223993      9.67200      64.9187 
0.000400105      3.29296      61.7228 
0.000221037      7.20561      56.0894 
0.000220053      7.29879      69.1316 
0.000219343      1.99279      51.5198 
0.000219103      6.50025      66.0375 
0.000218717      2.63765      58.9617 
0.000217037      5.95349      68.5203 
0.000216488      8.35694      67.4856 
0.000215211      2.64885      76.9081 
0.000215263      9.06221      68.6447 
0.000213694      8.17885      60.2377 
0.000400403      4.70685      72.9510 
0.000211739      4.09683      62.6844 
0.000978122      1.63218      53.9726 
0.000211220      9.68167      65.0761 
0.000516930      8.76696      60.6280 
0.000737017      3.44052      77.5796 
0.000209635     0.807218      48.0128 
0.000208143      7.31040      69.3339 
0.000586700      7.22222      56.1779 
0.000206837      1.03769     -117.553 
0.00171583     0.481664      138.366 
0.000394928      6.27936      55.9050 
0.000380257      2.63401      76.3858 
0.000204922      9.69012      64.9688 
0.000204119      8.34930      67.6124 
0.000871559      3.55494      60.6949 
0.000200719      9.02906      68.8349 
0.000327463      5.72503      55.5327 
0.000198599      8.70487      60.5490 
0.000197267      2.61847      57.1596 
0.000196853      9.70618      64.4910 
0.000196180      7.30337      69.4807 
0.000195460      4.15177      61.8301 
0.000506368      6.57951      65.7723 
0.000553621     0.501198     -61.3895 
0.000194171      8.15414      59.9762 
0.000358546      5.97210      68.5905 
0.000190163      8.26772      67.5294 
0.000189730      9.04772      68.8806 
0.000190582      2.63879      75.9638 
0.000190251      1.06677     -120.411 
0.000186920      7.32210      69.5355 
0.000185781      9.70711      64.7549 
0.000420636      8.77679      60.5142 
0.000184004      2.59600      56.3099 
0.000507922     0.824621      50.9061 
0.000181181      5.99803      68.4824 
0.000180860      8.16417      59.8547 
0.000180279     0.967677     -108.060 
0.000179197      2.00529      51.0725 
0.000179092      9.02186      68.9534 
0.000177670      8.24924      67.4763 
0.000177123      7.29638      69.6278 
0.000177236      9.71481      64.3845 
0.000177522      4.16005      62.2030 
0.000173142      7.20022      55.8685 
0.000171803      1.13225     -125.655 
0.000171946      9.69860      64.8618 
0.000172148      3.46006      77.6508 
0.000169733      4.18703      71.0458 
0.000682268      1.90042      91.2060 
0.000169412      7.31513      69.6823 
0.000167210      8.19151      59.8040 
0.000322393      2.64371      75.5432 
0.000167762      8.99602      69.0265 
0.000209042     0.945938     -103.449 
0.000166513      8.26010      67.6576 
0.000165973      7.21679      55.9576 
0.000164432     0.493964     -58.2405 
0.000163583     0.809198      50.0131 
0.000163148      9.69678      64.3334 
0.000164046      8.79420      60.5784 
0.000162775      2.60192      55.3327 
0.000162811      11.1740      64.6733 
0.000314508      4.72597      73.0221 
0.000160802      6.59776      65.8435 
0.000161183      7.33389      69.7366 
0.000160410      4.19509      59.6453 
0.000401105      5.69723      55.5847 
0.000159519      1.14403     -126.469 
0.000158910      9.00757      69.1908 
0.000158164      3.31476      77.8087 
0.000157478     0.511077     -59.4207 
0.000157276      8.15696      59.6627 
0.000551153      7.19494      55.6473 
0.000156053      9.71374      63.8570 
0.000155501      5.94619      68.6996 
0.000155256      8.23077      67.4230 
0.000198847     0.941488     -102.265 
0.000301675      11.1655      64.7661 
0.000153101      7.32014      70.0303 
0.000151988      2.58070      54.4623 
0.000150883      9.00049      69.3098 
0.000149777      4.12369      71.9166 
0.000149897      6.60597      65.6853 
0.000149337      9.73143      63.6456 
0.000148943      1.18068     -128.811 
0.000290961      5.20619      62.5490 
0.000289496      4.24650      58.4809 
0.000907774      9.14597      74.6570 
0.000147837     0.504777     -56.3099 
0.000146880      8.19446      59.4919 
0.000145401      8.18616      67.4447 
0.000281209      2.01792      50.6307 
0.000144610      5.89444      68.9206 
0.000144285      2.66308      75.6507 
0.000143935      9.71144      66.7084 
0.000266830      6.26281      55.8025 
0.000143908      8.81163      60.6422 
0.000176757     0.933809     -99.8658 
0.000558338      1.88043      91.2189 
0.000140970      9.70464      63.1709 
0.000141045      7.33894      70.0836 
0.000271698     0.500000     -53.1301 
0.000139550      11.1570      64.8590 
0.000139424      4.73362      73.5558 
0.000269777      8.95600      69.3391 
0.000139121      8.74954      60.5638 
0.000175173      1.23240     -131.711 
0.000136330      9.77548      67.6326 
0.000135813      4.14960      72.6130 
0.000263861      8.24160      67.6047 
0.000135370      1.86043      91.2320 
0.000135232      2.70185      75.8609 
0.000135173      7.21146      55.7370 
0.000135129      8.18743      59.3003 
0.000260259     0.930591     -98.6525 
0.000134051      3.37763      77.6920 
0.000263775      9.72276      62.9606 
0.000134036      7.35097      70.2833 
0.000377720      5.86859      69.0326 
0.000133625      2.61603      53.3929 
0.000132647      11.1485      64.9521 
0.000131490     0.820244      45.0000 
0.000131202      4.29511      57.9381 
0.000162076      1.27311     -133.727 
0.000130409      4.77200      73.6918 
0.000305906      3.32824      62.0490 
0.000126517      11.1304      64.9085 
0.000126512      8.21484      59.2515 
0.000350473      2.67761      76.1713 
0.000125830      3.52732      77.2245 
0.000246623      9.83890      68.9123 
0.000124636      7.32541      70.3777 
0.000332714      2.60000      53.1301 
0.000124456      6.63244      65.5989 
0.000124292     0.484149     -51.7098 
0.000124232      1.30108     -135.000 
0.000123431      4.28453      58.1647 
0.000235816      9.73187      62.8557 
0.000123644     0.495177      136.637 
0.000228252      8.83887      60.5928 
0.000122285      5.22475      62.1597 
0.000236054     0.834506      45.9710 
0.000121738      4.16279      72.9580 
0.000120468      11.1400      65.0452 
0.000120333      8.91859      69.2485 
0.000231673      4.78565      73.9888 
0.000230950      3.31904      77.4712 
0.000202638      1.28701     -134.370 
0.000118727      9.74101      62.7510 
0.000117775      8.27860      67.7102 
0.000337726     0.496790     -49.8991 
0.000260116      8.75938      60.4498 
0.000386864      2.58403      52.8640 
0.000224604      5.23546      61.4769 
0.000141447     0.925419     -96.2034 
0.000115525      4.32726      57.2648 
0.000115382      7.36310      70.4823 
0.000115426      8.18049      59.1083 
0.000114894      11.1219      65.0018 
0.000114902      10.4966      61.6771 
0.000320011      6.62420      65.7565 
0.000114383      9.85489      69.3215 
0.000113556      7.18977      55.4258 
0.000113487      6.24628      55.6993 
0.000113033      4.18191      73.0383 
0.000358097      1.32966     -136.219 
0.000111932      5.66943      55.6372 
0.000112035      8.94897      69.4589 
0.000199758      2.03067      50.1944 
0.00118690      9.46412      62.5685 
0.000214283      5.86147      69.2151 
0.000210171      8.25252      67.7860 
0.000109076     0.840238      51.7662 
0.000212570      10.5061      61.5810 
0.000109358      9.85957      69.5800 
0.000109027      4.34902      56.8215 
0.000211625      11.1316      65.1386 
0.000107701      8.25944      59.2742 
0.000209360      7.34983      70.7762 
0.000107366      7.15687      55.2441 
0.000107479      3.34293      77.2109 
0.000204634      1.30782      66.5713 
0.000300064      9.12669      74.6237 
0.000105174     0.923471     -94.9697 
0.000202696      4.80487      74.0546 
0.000103623      8.93024      69.4139 
0.000103945      9.86446      69.8382 
0.000103765     0.496790      139.899 
0.000199976      1.34417     -136.809 
0.000103003      4.15697      73.2215 
0.000372772      8.20792      59.0602 
0.000101695      9.75939      62.5422 
0.000101742      7.13552      54.9290 
0.000291943     0.495177     -46.6366 
0.000101168      3.36244      77.2864 
0.000100856      8.24498      67.9147 
0.000627838      4.33230      56.6767 
0.000192960      5.24504      61.2849 
9.99031e-05      1.35882     -137.386 
9.93802e-05      9.86955      70.0962 
0.000193633     0.484149      141.710 
9.86036e-05      10.5237      61.6329 
9.78234e-05      4.10721      73.5947 
9.72790e-05      11.1050      65.1888 
9.72507e-05      5.70856      55.4191 
9.70114e-05      7.11916      54.8366 
0.000187593      5.85440      69.3981 
9.62965e-05      8.92323      69.5341 
9.62549e-05      2.67290      76.5876 
9.57075e-05      9.87484      70.3540 
0.000300903      7.36872      70.8274 
0.000601328     0.921954     -93.7314 
9.50163e-05      9.76862      62.4381 
-0.000744726      1.09417     -161.896 
0.000376550      4.34332      56.4563 
9.38902e-05      8.20792      67.8097 
9.45099e-05      8.90097      60.6703 
9.33796e-05     0.852760      39.2894 
9.32341e-05      6.30187      55.6039 
0.000484079      10.5508      61.5889 
0.000348334      1.37361     -137.951 
9.25925e-05      6.65065      65.6701 
9.19328e-05      4.81867      74.3486 
0.000179456      11.1148      65.3257 
0.000368420      9.86057      70.9403 
9.17251e-05      1.30000      67.3801 
0.000178506      7.10282      54.7436 
0.000256855      9.10740      74.5904 
8.97167e-05      2.66391      77.4245 
0.000248835      5.65293      55.5228 
8.89823e-05     0.500000      143.130 
0.000170232      8.91625      69.6545 
0.000169630      4.17612      73.3008 
0.000167122      3.32794      76.7989 
8.83931e-05      8.18186      67.8865 
8.82056e-05      8.25252      59.0839 
0.000313489      9.85405      71.0502 
8.74249e-05     0.860233      35.5377 
0.00167319      1.38852     -138.504 
0.000241885      6.66888      65.7409 
0.000316359     0.480832     -45.0000 
8.65706e-05      4.86259      74.2488 
0.000166211      1.29244      68.1986 
8.59927e-05      5.27644      60.2282 
8.57772e-05      9.77789      62.3342 
0.000167918     0.488262      145.008 
8.52865e-05      5.82865      69.5130 
0.000151146      4.32134      56.8983 
8.44585e-05      4.17042      73.5639 
8.41969e-05      8.26646      59.4642 
8.40818e-05      3.30394      77.0574 
0.000161946      11.1065      65.4194 
8.33957e-05      7.08649      54.6503 
8.19588e-05     0.872009      36.6071 
0.000158859      7.93788      72.2498 
8.13215e-05      4.85720      74.4759 
0.000154901      2.64008      77.7537 
8.00460e-05      8.19290      68.0687 
7.96173e-05      5.29641      59.8526 
0.000222374      2.56811      52.5946 
7.89670e-05     0.477074      146.976 
7.86262e-05      9.79653      62.1271 
0.000151338      5.80293      69.6289 
0.000151926      7.07019      54.5565 
7.74408e-05      1.84043      91.2454 
0.000290099      9.08812      74.5569 
7.70530e-05     0.876584      34.7778 
7.70114e-05      2.04353      49.7636 
7.67794e-05      8.19078      58.9883 
7.65084e-05      6.69534      65.6552 
7.60584e-05      4.91504      74.6631 
0.000144856      4.16481      73.8278 
7.58313e-05      8.92809      69.8195 
7.55019e-05     0.493964      148.240 
7.52510e-05      1.28515      69.0265 
7.47879e-05      11.1247      65.4623 
7.40643e-05      6.32968      55.5567 
7.39181e-05      5.26908      59.9314 
0.000142063      3.30847      76.7198 
0.000323923      7.38761      70.8783 
7.31461e-05      8.17364      58.9160 
0.000142691     0.483735      150.255 
7.23602e-05     0.882043      32.9694 
7.20736e-05      4.20324      73.9797 
0.000134272      3.34592      62.2096 
7.19289e-05      8.21893      67.9915 
7.10937e-05      4.95363      74.7855 
7.09724e-05      5.62512      55.5754 
0.000136584      1.82044      91.2590 
0.000137636      7.05391      54.4623 
0.000137727      11.1164      65.5560 
7.03128e-05      1.27812      69.8637 
-0.000671687      1.10055     -160.907 
7.03897e-05      8.19766      59.1801 
0.000432507      7.95693      72.2937 
6.91440e-05      2.63591      78.1785 
6.91088e-05      9.81529      61.9206 
0.000131896      8.92121      69.9401 
0.000132472     0.898888      32.2756 
6.80142e-05      5.29940      59.3700 
6.79330e-05      4.97293      74.8459 
0.000132418     0.474131      152.354 
0.000392540      6.68712      65.8113 
0.000239051     0.495177     -43.3634 
6.66530e-05      8.16333      59.0362 
6.65773e-05      1.29027      71.0033 
0.000123241      4.15928      74.0924 
6.55062e-05      5.63645      55.4077 
0.000126648      5.75156      69.8637 
0.000126055      2.55225      52.3219 
6.52092e-05      9.82472      61.8177 
6.53774e-05      3.26956      76.5588 
6.48057e-05      10.5779      61.5452 
0.000296437      9.06885      74.5232 
0.000235280      7.03764      54.3677 
0.000400976      9.44638      62.5127 
0.000107246      9.74895      72.9405 
6.42180e-05      5.01155      74.9655 
6.40423e-05      8.30540      60.1011 
0.000124621      11.1081      65.6500 
6.33609e-05      2.06959      48.9182 
6.31653e-05      5.58605      55.7979 
6.31670e-05      1.27138      70.7099 
6.29675e-05      2.60837      78.9485 
0.000204501     0.920869     -92.4895 
6.27734e-05      8.21550      67.6806 
0.000122777     0.465188      154.537 
0.000110983      4.17852      74.1676 
0.000273802      10.5955      61.5967 
6.16845e-05      8.15652      58.8435 
6.12054e-05      9.87370      70.7209 
6.09805e-05      4.99223      74.9059 
6.07605e-05      1.78045      91.2873 
6.09008e-05      5.33022      58.8150 
6.04903e-05     0.905539      30.5297 
0.000151062      7.97599      72.3374 
6.00106e-05      4.18402      73.9041 
6.00151e-05      3.25011      76.4768 
5.96627e-05      8.57088      60.5039 
0.000168808      1.28390      71.8473 
5.85239e-05      8.12232      58.6975 
5.84122e-05      2.60461      79.3803 
0.000113950     0.483322      155.556 
5.80090e-05      5.59732      55.6285 
5.80558e-05      5.03086      75.0246 
0.000156440      9.86712      70.8305 
5.75868e-05      8.91437      70.0608 
0.000111864     0.913017      28.8108 
0.000111356      11.1264      65.6924 
5.64753e-05      9.84368      61.6125 
0.000288703      2.53645      52.0458 
0.000107255      8.71472      60.4345 
5.63577e-05      5.30961      59.1843 
5.63822e-05      1.80100      91.9091 
0.000107528      8.11566      58.5035 
5.56911e-05      3.27426      76.2184 
0.000158378      4.19776      74.2421 
0.000204126      5.02573      75.2448 
0.000307424      7.02140      54.2726 
5.48542e-05      5.74470      70.0510 
5.45455e-05      2.08279      48.5035 
0.000157332     0.475394      157.751 
5.43698e-05      8.37054      60.9853 
5.40881e-05      5.60864      55.4599 
9.94601e-05      3.23543      76.0497 
5.28925e-05      2.58132      79.7349 
0.000283402      9.04957      74.4894 
5.24264e-05      5.72591      69.9827 
5.24962e-05      6.22463      55.3398 
5.22163e-05      5.30275      58.8880 
5.17741e-05      1.78101      91.9306 
0.000100199      11.1100      65.8804 
-0.000498231      1.10725     -159.928 
0.000231168     0.922822      29.8989 
5.04349e-05      9.85320      61.5102 
5.04953e-05      9.75483      72.8282 
5.00986e-05      8.89557      70.0169 
4.99962e-05      5.34453      58.1537 
9.75225e-05      1.27781      72.6995 
4.99504e-05      2.60100      79.8134 
4.96065e-05      6.66069      65.8978 
9.41256e-05     0.509902     -41.8201 
4.91925e-05      8.09862      58.4296 
0.000142466     0.468188      160.017 
4.86839e-05      3.25484      76.1345 
8.95719e-05      9.88032      70.6114 
4.80411e-05      1.76102      91.9525 
4.79736e-05      8.32406      61.2797 
9.14990e-05      2.09609      48.0941 
4.78556e-05      5.53050      55.9077 
9.00391e-05      5.71909      70.1710 
4.67246e-05      11.8530      70.8925 
9.01773e-05      11.0937      66.0690 
4.65460e-05      2.57449      80.6108 
4.65542e-05      8.09210      58.2348 
0.000105626      7.40651      70.9290 
4.59812e-05      5.35511      57.9719 
8.97894e-05      10.6050      61.5016 
0.000132815      4.17310      74.4318 
8.77919e-05      1.29120      73.8108 
4.53808e-05      8.90757      70.1818 
4.51990e-05      11.4031      61.2773 
4.52532e-05      8.33369      61.1591 
0.000127089      5.02068      75.4655 
4.46346e-05      4.31560      56.5309 
4.44853e-05      5.62000      55.2920 
8.72788e-05     0.487032      160.821 
4.39236e-05      8.06871      57.9645 
8.55256e-05      1.74103      91.9749 
8.36789e-05      11.8465      70.9839 
8.40553e-05      8.74199      60.3852 
4.30343e-05      9.86276      61.4081 
4.29942e-05      11.4127      61.1892 
4.27674e-05      3.21123      76.3099 
8.20253e-05      8.06241      57.7686 
8.32228e-05      5.38717      57.4309 
8.17905e-05      9.03030      74.4555 
4.23702e-05      9.42864      62.4566 
4.18106e-05      12.5578      63.5166 
4.18484e-05     0.524976     -40.3645 
-8.17327e-05      10.6025      55.1408 
4.16926e-05      8.36875      61.2912 
4.16536e-05      2.57130      81.0505 
0.000104281      8.91964      70.3462 
8.16239e-05     0.480832      163.072 
4.10995e-05      11.0775      66.2581 
4.09028e-05      6.67895      65.9678 
4.07860e-05      4.19237      74.5051 
4.05495e-05      3.21602      75.9638 
4.05436e-05      12.5489      63.5983 
4.01576e-05      11.4224      61.1013 
4.02667e-05      6.16393      55.1755 
3.98116e-05      1.27201      73.5596 
3.98819e-05      5.69351      70.2920 
3.93677e-05      2.54849      81.4248 
0.000139381      8.15532      65.8235 
0.000131514      8.15730      66.1374 
0.000249087      5.20707      62.0570 
0.000126818      9.23887      60.9936 
0.000122868      8.11882      68.6179 
0.000119061      8.94197      69.5789 
0.000117303      9.24859      60.8852 
0.000326292      3.39912      62.6811 
0.000114836      6.05105      69.2888 
0.000112200      8.22061      62.6245 
0.000436086      7.14246      70.1951 
0.000108075      7.99505      72.3809 
0.000106670      9.27580      60.8374 
0.000105655      4.25131      70.2011 
0.000104636      8.94687      69.8637 
0.000103823      5.19076      61.4600 
0.000102642      11.9857      63.8625 
0.000100775      9.99088      67.6448 
9.81899e-05      6.04401      69.4661 
9.69208e-05      8.25222      61.3230 
9.63208e-05      12.0036      63.9046 
9.57501e-05      4.24457      70.4551 
0.000751139      8.01411      72.4242 
0.000171022      10.8144      66.8014 
9.33990e-05      5.20035      61.2664 
0.000177920      3.38136      62.5256 
9.17841e-05      9.28556      60.7296 
9.00872e-05      12.3762      65.2572 
8.95720e-05      8.94000      69.9840 
8.84512e-05      4.25027      71.0535 
8.70160e-05      8.26581      60.5818 
8.61462e-05      11.9945      63.7768 
8.29472e-05      4.40441      56.6707 
0.000144449      12.3846      65.1732 
8.16213e-05      9.29535      60.6221 
8.05858e-05      10.0018      67.7944 
8.05821e-05      4.25018      71.9061 
0.000267690      3.36363      62.3684 
7.89267e-05      7.97687      55.8318 
7.67977e-05      5.19249      60.9668 
7.63923e-05      11.9764      63.5205 
7.47512e-05      4.24401      72.1627 
7.40535e-05      8.92639      70.2253 
7.35288e-05      8.27809      60.1521 
0.000104975      12.3930      65.0892 
7.30363e-05      4.39936      55.3707 
7.02208e-05      7.97160      55.6321 
0.000455299      2.45837      50.6122 
6.97746e-05      12.4014      65.0054 
6.79977e-05      9.30518      60.5148 
6.70812e-05      11.9676      63.1780 
6.65723e-05      4.25102      72.7585 
6.52563e-05      8.28553      60.3409 
0.000121306      10.8328      66.8431 
6.37952e-05      5.25848      73.4260 
6.38704e-05      12.6963      60.0424 
6.25571e-05      4.40586      54.7949 
6.19114e-05      8.00063      55.0784 
0.000223343      1.21491      69.7751 
6.04458e-05      4.25281      73.6105 
5.99091e-05      10.0975      61.0997 
5.93966e-05      12.6990      59.8410 
0.000101818      6.03009      69.8221 
5.78898e-05      11.9407      63.2204 
0.000100436      3.37147      70.5977 
5.73880e-05      7.37547      58.0770 
9.45256e-05      12.3595      65.4256 
5.52461e-05      8.05367      54.2969 
5.45859e-05      12.7192      59.6852 
5.45222e-05      6.51773      56.2612 
0.000255816      5.26091      74.1144 
5.25432e-05      9.28778      60.4541 
5.19421e-05      12.3347      65.6791 
9.68798e-05      12.7364      59.7306 
5.12952e-05      5.20450      60.2824 
5.06629e-05      8.92513      70.6312 
5.02115e-05      4.27855      75.3791 
4.99117e-05      8.07267      53.8683 
4.94699e-05      11.9140      63.0478 
4.86116e-05      8.31281      60.2893 
9.09915e-05      12.7537      59.7759 
4.79457e-05      4.41280      54.2208 
0.000128017      1.19616      69.4440 
4.74926e-05      12.1223      68.0055 
4.67761e-05      4.28322      76.2233 
4.63060e-05      10.8512      66.8846 
8.80385e-05     0.702567     -4.89902 
4.58256e-05      8.10405      53.3281 
4.47459e-05      6.95865      54.7112 
4.46495e-05      12.0999      68.2689 
4.38824e-05      2.34580      50.8824 
4.36070e-05      11.8966      62.7888 
6.87042e-05      9.27038      60.3931 
4.21774e-05      8.91195      70.8738 
0.000334050      4.32042      80.4069 
4.14928e-05      12.0852      68.4451 
7.49368e-05      8.33271      60.0504 
4.07033e-05      4.44072      54.1623 
4.06206e-05      12.9146      60.4972 
4.01401e-05      8.12406      52.9044 
4.02064e-05      1.20814      70.6652 
3.98554e-05      11.2805      60.9355 
0.000286441     0.704557     -6.51978 
3.85880e-05      6.97022      54.5770 
3.85540e-05      1.21918     -131.009 
3.82847e-05      9.98697      68.6247 
3.80248e-05      3.36488      70.9189 
7.30947e-05      12.6846      59.5940 
3.71589e-05      12.0488      68.8874 
6.99692e-05      1.62012      89.2927 
3.70882e-05      8.13614      52.7921 
3.67448e-05      11.3077      60.8962 
6.68895e-05      10.8540      67.1203 
3.57811e-05      7.00974      54.4053 
9.44387e-05      4.45246      53.9537 
3.48389e-05      12.0416      68.9762 
3.43642e-05      1.24579     -132.397 
6.28248e-05      11.8972      62.5734 
6.53815e-05      8.14452      52.4829 
3.34630e-05      8.90541      70.9954 
3.32063e-05      12.9245      60.4201 
3.31245e-05      5.22444      59.9014 
3.24284e-05      12.0344      69.0650 
3.20675e-05      11.3175      60.8077 
3.15912e-05      12.6502      59.5023 
5.76476e-05      1.17746      69.1022 
3.03803e-05      12.0273      69.1540 
3.00093e-05      12.6329      59.4563 
2.96573e-05      3.35261      70.4841 
2.94756e-05      11.3272      60.7194 
2.89524e-05      8.35275      59.8127 
2.87918e-05      12.0202      69.2431 
2.84537e-05      1.64000      90.0000 
5.32828e-05      8.15672      52.3714 
2.78898e-05      7.03309      54.1403 
2.78376e-05      12.9344      60.3430 
2.72334e-05      8.91785      71.1587 
2.71247e-05      12.4184      64.8382 
-0.000848588      1.06301      168.056 
5.01576e-05      12.6157      59.4101 
2.63746e-05      12.0061      69.4216 
6.50995e-05      5.01334      51.8043 
5.06632e-05      1.66012      90.6903 
6.70219e-05      8.38010      59.7632 
2.51430e-05      11.8887      62.4435 
2.51061e-05      3.34598      70.8069 
7.16448e-05      1.31529     -135.616 
2.48186e-05      10.8646      67.2584 
0.000561304      12.9443      60.2661 
4.72740e-05      11.9991      69.5110 
4.29268e-05      7.16128      70.2493 
2.39513e-05      11.3370      60.6312 
2.38181e-05      7.04483      54.0085 
2.38231e-05      1.16619      67.8337 
-6.91018e-05      10.6739      54.2252 
2.31687e-05      8.91141      71.2804 
0.000162026      8.16894      52.2604 
2.29381e-05      1.66048      91.3803 
6.56299e-05      12.5985      59.3638 
2.24922e-05      8.39019      59.6453 
-0.000302601      3.54683      86.4438 
9.55045e-05      12.4269      64.7547 
2.23747e-05      1.68048      91.3639 
2.22875e-05      3.33305      71.4563 
2.20140e-05      11.3643      60.5928 
4.17281e-05      4.46426      53.7462 
-0.000163376      6.63605      46.8319 
-0.000105050      10.6623      54.3124 
2.18282e-05      7.05660      53.8771 
6.11364e-05      1.14769      67.4569 
0.000101500      1.68107      92.0454 
2.14592e-05      11.9921      69.6005 
4.10546e-05      12.5813      59.3174 
4.18572e-05      3.33958      72.2161 
2.08777e-05      11.8980      62.3581 
2.06000e-05      7.04045      53.7812 
2.04673e-05      8.90501      71.4023 
1.98763e-05      11.9782      69.7799 
-9.42550e-05      10.6506      54.3998 
-0.000150721      1.06733      102.995 
1.93771e-05      5.22739      59.4122 
5.71188e-05      3.32758      72.8720 
-5.64043e-05      6.28427      47.3215 
1.93640e-05      11.3741      60.5050 
1.92418e-05      8.37004      59.8815 
3.71293e-05      7.05229      53.6501 
5.52871e-05      1.70188      92.6943 
5.56509e-05      1.12925      67.0679 
3.67370e-05      12.5641      59.2709 
1.85352e-05      11.9851      69.6901 
1.80657e-05      5.28015      74.1738 
1.79956e-05      10.0791      60.1282 
1.79057e-05      4.30070      80.3625 
1.81450e-05      1.14018      68.3852 
-1.77358e-05      6.65065      46.9497 
1.79127e-05      8.36002      60.0001 
-1.77160e-05      10.6390      54.4874 
0.000148444      12.6482      62.7056 
4.77210e-05      12.6391      62.7862 
4.12846e-05      12.5223      63.8442 
3.77257e-05      12.4699      64.3391 
2.90148e-05      12.3678      65.3413 
2.65668e-05      12.3429      65.5945 
2.42190e-05      12.3264      65.7638 
8.71184e-05      5.84031      75.7258 
0.000127101      3.65699      57.9614 
2.17408e-05      12.3019      66.0186 
2.00635e-05      12.2938      66.1038 
1.84699e-05      7.31207      70.6730 
1.79434e-05      12.2777      66.2744 
-0.000443418      9.62906      75.4442 
1.79395e-05      3.64642      58.2278 
1.77130e-05      7.33095      70.7247 
1.75776e-05      12.2696      66.3599 
1.73573e-05      3.04926      59.2296 
1.67061e-05      12.2537      66.5313 
3.30038e-05      3.03210      59.0362 
3.15212e-05      12.2378      66.7030 
4.54856e-05      3.01496      58.8407 
3.04485e-05      7.42542      70.9794 
2.94884e-05      12.2220      66.8753 
1.48012e-05      7.44433      71.0296 
2.80457e-05      7.46324      71.0795 
4.11901e-05      2.99787      58.6429 
1.39817e-05      12.2064      67.0479 
2.68004e-05      7.50109      71.1786 
1.35241e-05      12.1986      67.1344 
1.29681e-05      12.1908      67.2211 
1.30550e-05      7.52003      71.2277 
-0.000103408      10.7802      53.4490 
2.50773e-05      2.98081      58.4429 
3.72687e-05      7.53897      71.2767 
1.25157e-05      12.1754      67.3946 
1.21420e-05      12.1677      67.4816 
5.51717e-05      2.96378      58.2405 
1.18090e-05      7.55791      71.3253 
2.31333e-05      12.1601      67.5686 
2.30988e-05      7.57686      71.3737 
1.13814e-05     0.550272     -109.093 
1.11000e-05      7.59581      71.4219 
3.24256e-05     0.557135     -111.037 
2.17093e-05      12.1449      67.7430 
1.08158e-05      7.61478      71.4699 
2.12782e-05      7.63374      71.5176 
-1.03486e-05      10.5811      63.6287 
3.07711e-05      12.1373      67.8304 
3.09162e-05     0.546260     -113.749 
2.02273e-05      7.65271      71.5651 
-1.03402e-05      10.5723      63.7258 
-1.01188e-05      10.5458      64.0181 
9.95437e-06      7.67169      71.6123 
-9.91989e-06      8.37874      50.2294 
9.96667e-06      7.76582      58.4795 
-9.94560e-06      10.5634      63.8231 
9.92273e-06      12.1298      67.9179 
0.000200730      18.7519      60.6189 
0.000450149      15.6176      66.8496 
0.000176733      18.7641      60.4293 
0.000241312      17.3990      66.2047 
0.000291466      19.8104      68.5638 
-0.000434509      11.4474      114.461 
-0.000482404      10.4980      151.433 
7.92548e-05      19.8177      68.5100 
0.000151634      21.3432      57.3970 
7.65511e-05      18.7963      60.1341 
-0.000339405      10.5164     -15.7808 
7.55960e-05      15.9184      70.0169 
0.000399774      16.9174     -140.854 
0.000373366      22.1393      21.3497 
7.29743e-05      14.1444      66.5887 
6.93321e-05      18.8856      59.3068 
6.84231e-05      14.1181      66.6309 
0.000192988      21.3324      57.4423 
6.64562e-05      15.5992      66.8207 
6.42479e-05      14.1524      66.5143 
-0.000116525      13.7464     -97.7764 
6.27753e-05      22.7811      63.4574 
0.000168021      15.9236      70.1767 
6.18807e-05      17.3807      66.1781 
-6.17378e-05      10.5356     -15.7512 
6.09804e-05      18.9403      58.9117 
-0.000254835      10.3344      99.9181 
0.000215445      2.57099     -50.3656 
0.000450923      13.2723      52.7157 
-0.000520104      13.7437     -97.6938 
-0.000355602      11.4292      114.502 
0.000214642      16.6906     -71.4131 
-0.000285865      12.2824     -110.294 
0.000283288      22.7721      63.3899 
5.85141e-05      14.2314      66.3891 
0.000161071      21.8801      59.3326 
0.000327937      3.56724     -82.9148 
0.000104154      15.5808      66.7918 
5.75723e-05      19.8031      68.6177 
-0.000294823      10.5109     -15.6758 
5.59046e-05      18.7744      61.6331 
5.51743e-05      21.3048      57.4587 
5.36359e-05      14.3368      66.2242 
-0.000229795      10.4805      151.381 
-5.34482e-05      20.9724     -18.2276 
0.000101464      22.3047      15.8184 
0.000188914      16.9329     -140.896 
5.28701e-05      19.7958      68.6716 
5.19587e-05      19.0064      58.4675 
-0.000143476      8.23660      137.165 
5.10990e-05      17.3463      66.2723 
-9.79532e-05      7.71899     -26.2995 
-0.000352629      21.4917      100.672 
9.64845e-05      17.4288     -151.111 
-5.04018e-05      20.9534     -18.2447 
-5.03806e-05      11.3081     -64.6586 
-0.000208121      24.0603      126.584 
4.95076e-05      16.6652     -71.4563 
4.93004e-05      14.3448      66.1511 
9.24780e-05      13.5918     -151.813 
9.17361e-05      21.2879      57.4297 
9.45152e-05      20.7506      95.9194 
-4.83973e-05      2.79406     -139.354 
-9.26006e-05      11.8455     -76.1280 
-4.81088e-05      16.9849      45.2385 
-9.28594e-05      11.2996     -64.7503 
4.76204e-05      16.8422      60.7868 
4.69687e-05      19.7885      68.7255 
0.000130499      22.1506      21.2826 
4.63087e-05      18.6291     -46.1745 
-0.000195658      26.2346      117.073 
-4.57849e-05      12.2894     -110.381 
-0.000382896      2.80927     -139.620 
4.55587e-05      19.0314      58.2308 
-0.000127906      7.16938     -59.8586 
4.55571e-05      16.5779      3.87385 
-4.54212e-05      20.9406     -18.3138 
4.52427e-05      11.8233     -39.3712 
4.50475e-05      14.3712      66.1104 
0.000121899      2.55562     -50.0796 
4.46343e-05      21.8871      59.4044 
-8.59823e-05      12.4165     -115.574 
-8.64979e-05      16.9425      45.2870 
8.34816e-05      19.4268      105.281 
8.60277e-05      3.39299     -129.979 
-4.37635e-05      12.9707     -131.061 
8.32526e-05      22.3239      15.8044 
-4.32199e-05      7.72810     -26.1009 
0.000186873      16.9237      105.350 
-7.55131e-05      15.2266      93.3886 
4.32309e-05      13.2602      52.7844 
-7.56367e-05      10.3310      99.8088 
-4.27750e-05      22.4840     -18.1932 
4.27424e-05      11.7797     -39.4195 
8.32294e-05      16.6842     -71.4782 
4.25031e-05      15.9252      69.9493 
-8.17142e-05      11.2911     -64.8421 
-8.03068e-05      20.6445     -31.9348 
4.22182e-05      19.7741      68.8335 
0.000113343      18.6574     -46.1727 
7.94714e-05      20.4781      87.5931 
-0.000186857      15.4042     -136.210 
4.18632e-05      20.2291      58.1327 
8.16947e-05      8.60188     -81.1728 
-7.97472e-05      16.3956     -77.3878 
0.000116769      23.7508      65.3125 
4.14600e-05      20.7527      95.9743 
-0.000218317      10.6556      20.2036 
4.13468e-05      14.3976      66.0698 
-0.000113356      8.17364      121.084 
-7.86395e-05      11.8503     -76.0341 
7.73479e-05      17.4385     -151.054 
7.62560e-05      7.13574      79.6664 
4.09356e-05      16.8227      60.9057 
0.000114193      6.04728      27.5820 
-7.87055e-05      15.2067      93.3930 
4.05004e-05      11.7642     -39.4813 
-4.03205e-05      24.0722      126.622 
0.000184285      3.38018     -129.719 
-4.01706e-05      20.6891     -31.9232 
-4.02303e-05      8.22302      137.267 
-7.59345e-05      12.9838     -131.128 
7.68188e-05      16.5765      3.80488 
3.99806e-05      21.8840      59.5212 
0.000114131      13.6391      160.290 
-7.23863e-05      10.4629      151.328 
-7.52565e-05      22.5030     -18.1773 
-3.97873e-05      16.9567      45.3345 
3.97226e-05      18.8435      33.3527 
3.95167e-05      14.5041      10.0858 
-3.95182e-05      14.9891      164.443 
-0.000143979      10.5302     -15.6464 
3.93134e-05      13.6624     -8.84181 
3.90394e-05      19.0630      58.0775 
3.89262e-05      11.7488     -39.5433 
-0.000110513      15.3705     -6.87534 
-3.89984e-05      20.9027     -18.3483 
-7.32214e-05      11.4210      114.411 
-0.000176902      14.5925     -67.6882 
3.86123e-05      19.7668      68.8876 
3.85068e-05      7.11969      79.4792 
3.83628e-05      16.6589     -71.5215 
3.84631e-05      15.5913      66.8883 
3.81249e-05      13.8381     -11.0826 
-3.80191e-05      11.3411      179.192 
3.79477e-05      22.7811      63.3450 
3.76457e-05      3.18226      44.2361 
-3.75443e-05      9.18662      152.654 
-3.75913e-05      16.9144      45.3832 
-7.48508e-05      16.2763      171.093 
-0.000137918      20.4144      142.243 
6.96750e-05      21.8810      59.6380 
-0.000102654      7.17944     -59.7206 
7.13064e-05      8.59884     -81.3045 
-3.71739e-05      14.7733      52.3699 
3.71296e-05      13.6012     -151.739 
-3.70846e-05      12.4931     -139.220 
-3.68786e-05      15.9360     -128.682 
3.67423e-05      22.3432      15.7904 
0.000103938      21.1086      106.684 
7.11461e-05      25.6842      64.5923 
0.000137001      16.6336     -71.5650 
-7.11156e-05      12.4345     -115.535 
3.66181e-05      5.45952     -134.109 
3.65959e-05      11.7334     -39.6055 
6.99346e-05      14.4057      65.9971 
-0.000102502      29.8721      45.9223 
3.62589e-05      24.4477      7.47384 
-3.61728e-05      11.2838     -65.1610 
-7.03152e-05      15.0084      164.464 
3.62274e-05      18.7800      61.9885 
3.60280e-05      22.1320      21.3014 
-6.85478e-05      9.23725     -133.684 
-3.59240e-05      7.74607     -26.0358 
-0.000102345      21.4955      100.724 
-0.000134480      14.7770      52.4787 
6.87567e-05      3.19662      43.9860 
6.93098e-05      16.4458     -162.446 
0.000135119      5.93309     -160.710 
6.90017e-05      14.4844      10.0996 
3.56178e-05      18.2072      95.6104 
6.85184e-05      13.0304     -145.822 
-3.54860e-05      20.4916     -37.9436 
3.53260e-05      16.8033      61.0249 
-6.82470e-05      9.57071     -59.8987 
3.53129e-05      11.5260     -40.0729 
-6.68590e-05      8.22195      137.070 
-3.50048e-05      15.2055      93.3178 
3.49742e-05      18.8378      33.4370 
-6.79178e-05      3.28694     -168.417 
6.72109e-05      13.6203      160.261 
-3.49808e-05      28.4705      38.6975 
-6.69596e-05      20.8837     -18.3655 
3.46191e-05      13.8223     -11.1799 
3.43916e-05      26.2421      40.5492 
6.64996e-05      22.3377      15.7410 
6.58850e-05      16.5337      64.7989 
3.42016e-05      20.2396      58.0846 
3.42038e-05      20.1434      116.031 
-3.39630e-05      11.3614      179.092 
-3.39899e-05      10.6369      20.2408 
-3.40702e-05      15.9485     -128.738 
6.54431e-05      26.6309      31.3623 
-3.39301e-05      16.9286      45.4308 
3.39394e-05      24.4675      7.46775 
3.38417e-05      19.7596      68.9417 
6.56998e-05      12.9103      150.894 
3.37570e-05      7.13936      79.5085 
-9.66586e-05      15.8475     -120.319 
3.34921e-05      22.8185      66.7157 
3.35273e-05      5.45916     -134.406 
3.34188e-05      22.1207      21.3685 
3.33866e-05      11.5848     -39.9575 
-3.34698e-05      22.5220     -18.1614 
-3.33280e-05      20.5354     -37.9190 
-3.32070e-05      21.6054      78.0868 
3.30907e-05      20.4789      87.5372 
3.31220e-05      15.4829      30.9384 
-3.30707e-05      24.3745      121.512 
3.31622e-05      23.7592      65.2687 
3.29992e-05      14.4914     -166.999 
3.27338e-05      20.7747      96.0234 
-3.27117e-05      20.6276     -31.9642 
3.26334e-05      16.9162      150.616 
-3.25308e-05      12.9970     -131.194 
3.22835e-05      3.37769     -130.197 
3.22628e-05      20.0811      38.9361 
-6.36010e-05      24.1898      48.0832 
3.21897e-05      13.7925      67.0414 
-3.20827e-05      14.3191      87.0377 
3.21547e-05      14.4383     -73.1715 
-3.20458e-05      12.5104     -139.409 
3.19035e-05      11.4954     -40.2012 
-3.18815e-05      16.2991      171.035 
-3.18374e-05      7.05634     -176.100 
3.17389e-05      25.6757      64.6326 
-3.17962e-05      11.8600     -75.8466 
3.16556e-05      19.1054      57.8738 
3.16498e-05      13.6365     -151.819 
-3.16786e-05      28.4986      38.7038 
3.15992e-05      25.9189      127.728 
3.15234e-05      15.8511     -95.4301 
3.14787e-05      13.8497     -11.3262 
-3.15437e-05      15.3483     -6.81016 
-3.13222e-05      15.9329     -128.783 
3.12447e-05      14.3401      179.760 
3.12001e-05      22.8106      66.7618 
-3.11469e-05      21.4758      100.734 
-3.10981e-05      9.19524      152.822 
-3.10873e-05      22.5472     -18.1939 
-3.10740e-05      11.2240     -65.5814 
0.000378351      20.0260     -81.3844 
0.000123202      19.4833     -91.0587 
-0.000292804      19.5784     -76.5316 
0.000249995      25.7321     -50.8673 
0.000106956      17.3798     -175.247 
0.000139305      23.7349     -124.842 
-0.000200567      24.1364     -131.775 
-0.000103263      22.0740     -155.711 
0.000133666      19.5226     -90.9392 
-9.69648e-05      25.9038      138.631 
-9.80856e-05      28.1166     -135.692 
6.70797e-05      17.3831     -175.116 
3.43637e-05      19.8260     -152.091 
-6.67517e-05      25.8174      138.580 
-0.000128320      21.3590     -116.709 
9.58771e-05      18.6824     -118.101 
-3.33070e-05      27.4568     -132.757 
6.29550e-05      19.8073     -152.193 
-6.32445e-05      20.5936      142.418 
6.26551e-05      18.9428     -110.004 
6.24883e-05      20.1789      116.108 
-6.20634e-05      26.2294     -48.0907 
6.20224e-05      18.6492     -160.321 
3.17292e-05      12.7631      141.873 
-3.14177e-05      16.3913     -77.4560 
3.13837e-05      16.5727     -94.5684 
3.13766e-05      18.7696      62.1789 
3.13111e-05      17.2467      178.405 
6.13711e-05      13.7508      67.2391 
3.12076e-05      19.5210     -57.8079 
3.12193e-05      16.9434      150.591 
-3.09660e-05      7.78203     -25.9065 
-3.08951e-05      22.5842     -36.6466 
-3.08609e-05      15.9298     -128.884 
3.06840e-05      7.12337      79.3211 
3.05575e-05      13.6015      160.233 
-3.03667e-05      12.5082     -139.279 
3.02193e-05      12.7316      141.762 
-3.02414e-05      12.8182     -101.520 
-3.01335e-05      12.9820     -131.252 

select Q, 1, 8
! Flux (Jy) Radius (mas)  Theta (deg)  Major FWHM (mas)  Axial ratio   Phi (deg) T \
! Freq (Hz)     SpecIndex
-0.000956556      6.20194      59.7968 
-0.00108965      6.23654      59.9816 
0.000578853      4.73084      71.2587 
0.000174939      4.68017      71.5651 
0.000240795      4.36440      70.7347 
0.000162255      4.80666      71.5651 
0.000182271      4.23792      70.7100 
-0.000155612      6.88744      59.2645 
0.000399141      4.84463      71.7146 
0.000149772      4.14922      70.8664 
-0.000441584      6.94228      59.1495 
0.000284851      4.89522      71.4170 
0.000279954      4.09839      71.2114 
-0.000389383      6.16740      59.6098 
-0.000759653      9.12079      57.3554 
0.000258759      4.93315      71.5651 
0.000563820      4.06054      71.0296 
-0.00112137      6.97665      59.3179 
0.000235473      4.98381      71.2742 
-0.000116771      6.14726      59.9314 
0.000213908      4.02274      70.8444 
-0.000316989      6.13293      59.4208 
0.000214777      5.02171      71.4207 
0.000106948      4.07372      70.4976 
0.000100294      5.12328      70.8577 
0.000193599     0.632456      34.6952 
9.93790e-05      4.03604      70.3080 
0.000528143      4.79416      72.0186 
9.53327e-05      3.64000      67.3801 
-0.000504971      6.09852      59.2296 
9.38857e-05      4.17612      69.8293 
9.22738e-05      5.21199      70.7307 
0.000247817      4.13860      69.6384 
0.000405910     0.624820      39.8056 
0.000169875      3.60311      67.1355 
8.55424e-05      4.19008      69.3159 
0.000236547      5.30072      70.6079 
-0.000443604      1.70176      66.4477 
-8.02356e-05      9.14243      57.1443 
-0.000154850      8.02755      60.1135 
0.000177723      4.75613      71.8698 
7.81885e-05      3.61884      66.5519 
-9.41236e-05      7.01108      59.4847 
-7.44913e-05      9.17606      57.2798 
0.000273552      3.58218      66.2974 
7.25516e-05      4.14478      67.8906 
7.15805e-05      9.31751      66.7368 
-0.000137710      7.99290      59.9706 
-0.000153739      7.03147      59.2039 
-0.000134385      6.05072      58.5166 
0.000198203      9.30178      66.9632 
0.000362476     0.594643      42.2737 
-0.000299561      9.15450      57.4904 
6.56864e-05      4.15153      64.9164 
0.000101651      5.33846      70.7505 
6.34919e-05      4.13260      64.1790 
-6.35210e-05      6.35106      62.6280 
-0.000123718      1.71814      65.2249 
-6.31463e-05      7.88923      59.5345 
-6.21255e-05      7.06586      59.3700 
0.000284921      9.24935      67.0942 
6.05935e-05      3.99720      71.9277 
-0.000116927      6.00387      57.7923 
-5.93676e-05      7.77246      58.6823 
0.000217168      3.56202      65.4495 
-5.90704e-05      6.38661      62.7930 
-5.87844e-05      1.75454      65.7723 
5.85678e-05      4.16807      63.1890 
-9.61911e-05      7.08632      59.0917 
5.80390e-05      5.38947      70.4892 
-5.73633e-05      8.04249      60.5025 
0.000107422      2.45177      84.3824 
-0.000108725      7.12067      59.2570 
5.58560e-05      4.13241      62.9389 
-0.000212085      1.77133      64.5923 
-0.000106902      6.36842      63.1131 
-5.45978e-05      7.70423      58.3730 
5.40040e-05      4.01138      73.1913 
0.000183530      5.42719      70.6302 
-5.27157e-05      5.95799      57.0568 
0.000102069      4.15076      62.4472 
-0.000101646      8.07733      60.6422 
0.000101653      9.80490      62.2850 
-5.06215e-05      7.67020      58.2163 
9.96057e-05      9.23385      67.3229 
-4.94150e-05      6.38624      63.5954 
4.88705e-05     0.568507      39.2894 
-0.000390060      6.62722      58.3245 
-0.000224475      7.73253      56.3921 
6.32397e-05      5.14820      71.4243 
0.000382748      5.11030      71.2814 
-0.000201938      7.75474      56.1460 
-9.75309e-05      8.91201      53.0272 
0.000181903      11.1700      72.2788 
9.39699e-05      9.66387      68.6390 
4.74459e-05      4.60539      72.8241 
4.62215e-05      5.23679      71.2883 
-8.57717e-05      9.57413      56.2435 
4.50731e-05      4.56719      72.6759 
-8.78564e-05      6.60630      58.6198 
4.45608e-05      8.89305      70.8316 
-4.41232e-05      5.88218      54.6888 
8.62813e-05      5.28757      71.0168 
4.32100e-05      4.52902      72.5252 
4.29403e-05      9.70113      68.7250 
-0.000195304      8.88009      52.8720 
4.16598e-05      8.85799      69.9285 
-4.17986e-05      7.71046      56.6397 
4.11730e-05      4.47893      72.8597 
-4.11138e-05      5.89196      55.2310 
0.000214084     0.430813      111.801 
0.000114460      9.73842      68.8104 
-0.000116049      6.64048      58.7995 
7.85928e-05      5.32541      71.1568 
3.94581e-05      8.81090      69.2613 
0.000113299      4.44072      72.7076 
-3.94469e-05      7.68854      56.8887 
3.84676e-05      11.1319      72.2161 
-0.000200469      5.85915      55.0080 
7.25218e-05      8.77351      69.1688 
-7.01644e-05      9.58532      56.5752 
3.63545e-05      10.7517      71.5651 
-3.60079e-05      7.55280      59.0883 
-3.51134e-05      6.67473      58.9774 
0.000183154      4.49088      72.3720 
-3.47093e-05      7.54655      59.7654 
6.76632e-05      5.37624      70.8910 
3.45268e-05      8.90788      73.0297 
6.61445e-05      9.77572      68.8952 
3.39075e-05      3.52409      63.7258 
3.34671e-05      11.2081      72.3410 
-9.60374e-05      6.65420      59.2725 
3.30245e-05      8.76502      68.5870 
-3.28808e-05      7.50658      60.2930 
9.15295e-05      3.57771      63.4349 
6.19549e-05      8.72779      68.4912 
-3.16279e-05      7.52170      60.7086 
3.12554e-05      10.6380      71.3607 
3.09113e-05      5.41406      71.0296 
0.000157171      4.45277      72.2161 
3.04894e-05      9.75295      68.5913 
-7.98870e-05      9.56335      56.7752 
-0.000247906      1.84261      62.8787 
-3.01660e-05      7.50221      60.9751 
2.98100e-05     0.417612      106.699 
5.55573e-05      11.2463      72.4028 
5.64677e-05      8.92323      73.5960 
-2.94053e-05      6.63385      59.5695 
8.08292e-05      2.51873      79.9393 
-2.85553e-05      7.48289      61.2429 
2.87479e-05      9.76762      68.3729 
0.000130329     0.379473      108.435 
8.10132e-05      8.74254      68.2473 
-2.83364e-05      6.47864      65.1754 
2.83026e-05      3.61353      63.7186 
-2.77567e-05      7.79959      55.6579 
5.15111e-05      10.6001      71.2916 
-0.000101844      5.83630      55.3297 
5.32938e-05      3.63142      63.1527 
-5.37746e-05      6.49837      65.6436 
2.69348e-05      9.74532      68.0676 
-2.71236e-05      7.49891      61.6578 
-2.56537e-05      7.44473      61.7826 
2.54553e-05      9.76033      67.8498 
-4.99650e-05      6.48198      65.9657 
4.85500e-05      8.91201      73.8427 
-4.88641e-05      7.48000      61.9275 
7.26918e-05      3.66715      63.4349 
4.77908e-05      8.70540      68.1497 
-2.42835e-05      6.69543      58.6840 
4.71608e-05      5.44059      70.2328 
4.77379e-05     0.393954      113.962 
-9.44894e-05      1.86118      61.7826 
2.41760e-05      9.73850      67.5431 
-4.63536e-05      6.46579      66.2894 
2.28670e-05      9.71695      67.2350 
-2.29689e-05      7.82222      55.4160 
2.25945e-05      4.50315      71.8869 
6.37126e-05      9.86712      70.8305 
-6.35386e-05      7.08079      57.9260 
2.99939e-05      9.82934      70.7540 
-5.86597e-05      7.11472      58.0971 
2.88443e-05      9.79159      70.6768 
2.77609e-05      9.66511      70.6652 
-5.25194e-05      7.14871      58.2665 
2.67430e-05      9.62738      70.5864 
-5.23683e-05      7.20378      58.1632 
2.57803e-05      9.58966      70.5069 
2.51867e-05      9.55196      70.4269 
4.79887e-05      4.27570      70.8870 
-7.10732e-05      7.18276      58.4343 
4.76315e-05      9.46319      70.4928 
6.66554e-05      4.31351      71.0610 
2.25237e-05      9.42550      70.4116 
-4.47892e-05      7.12775      58.5400 
4.27530e-05      12.4851      59.1622 
4.27954e-05      9.38782      70.3298 
-4.26237e-05      7.16190      58.7070 
2.11673e-05      4.35137      71.2319 
-2.03892e-05      8.46763      54.8084 
2.02083e-05      9.29903      70.3959 
-4.01791e-05      7.05204      58.9248 
8.82783e-05      12.4508      59.0678 
3.84688e-05      9.26136      70.3129 
5.47444e-05      4.40218      70.9065 
-1.84231e-05      8.52338      54.7436 
1.82148e-05      9.21025      70.4633 
5.32803e-05      4.44000      71.0754 
1.76204e-05      9.17257      70.3798 
-0.000146016      2.15035      46.5074 
1.75658e-05     0.761052     -176.987 
3.36603e-05      9.12149      70.5321 
3.34014e-05     0.764199     -173.991 
-1.67550e-05      8.57914      54.6797 
-3.23130e-05      6.99085      59.7672 
1.61822e-05      4.32666      70.5600 
-1.61435e-05      6.95632      59.6013 
3.21958e-05      9.13490      70.2955 
4.67337e-05     0.724431     -173.660 
3.16041e-05      4.28896      70.3821 
-1.55598e-05      7.02544      59.9314 
1.53451e-05      8.44038      73.1967 
-1.51700e-05      8.63491      54.6166 
1.52344e-05      4.34014      70.0620 
1.50324e-05      4.26502      69.6955 
-1.50959e-05      6.88151      60.0073 
1.50479e-05      9.14846      70.0597 
0.000173956      3.36000     -90.0000 
0.000169024      11.5412      44.1575 
0.000139284      17.2079     -1.73167 
-0.000132687      22.8897     -133.513 
3.05582e-05      18.5111      172.675 
-8.43153e-05      17.6396     -56.5622 
-2.95146e-05      21.1102     -131.543 
-0.000132269      16.9484      14.0690 
0.000104399      18.5162      172.553 
5.43580e-05      13.4802     -175.575 
8.09510e-05      16.0467      166.449 
-0.000101909      21.1367     -131.625 
7.79327e-05      10.2956     -68.8187 
2.73605e-05      13.4403     -175.562 
-5.32248e-05      1.80178     -2.54480 
-0.000100297      22.8097      61.0527 
-7.42795e-05      17.4929      104.704 
-4.99905e-05      15.8249     -160.970 
-4.92342e-05      22.0229      117.356 
-4.99568e-05      16.0524      59.2811 
-4.96453e-05      15.7045      81.2095 
2.56579e-05      12.8853     -4.80795 
-2.51005e-05      17.6228     -51.5433 
-4.79633e-05      22.0444     -119.216 
-4.85936e-05      28.3137      44.4849 
-4.87102e-05      24.5245     -144.962 
4.73984e-05      5.08897     -110.714 
2.47933e-05      21.1932      138.366 
-2.46165e-05      1.80044     -1.27303 
-4.74289e-05      20.4771      31.1749 
-2.45860e-05      17.6176     -56.6707 
-4.73368e-05      9.29809      138.837 
-2.39483e-05      3.36809     -164.148 
2.37928e-05      19.8616      172.245 
2.36964e-05      12.8820     -4.63067 
2.36185e-05      20.0825    -0.913003 
2.35752e-05      8.52103     -155.601 
-2.35223e-05      1.84174     -2.48955 
2.34817e-05      16.0562      166.310 
2.34515e-05      11.5134      44.0147 
-2.33018e-05      23.6740     -148.754 
-2.32326e-05      17.6293     -51.7259 
-2.31348e-05      3.31880      164.624 
2.31260e-05      7.95226     -66.2716 
-2.31757e-05      14.9488      83.0842 
-2.30452e-05      19.0750     -145.077 
2.29484e-05      23.3574      38.8130 
2.30003e-05      21.1069      138.303 
-2.27436e-05      9.85665     -14.0926 

select U, 1, 8
! Flux (Jy) Radius (mas)  Theta (deg)  Major FWHM (mas)  Axial ratio   Phi (deg) T \
! Freq (Hz)     SpecIndex
0.00111979      7.29032      66.3886 
0.000225936      5.80386      66.4385 
-0.00133368      6.72428      55.1755 
0.000791583      5.84055      66.5953 
0.000858830      7.25369      66.2621 
0.000494079      5.89847      67.2606 
-0.000428870      6.70152      55.4562 
0.000148475      5.93539      67.4098 
0.000962426      7.23768      66.5519 
0.000141281      5.78342      65.9168 
-0.000917119      6.73451      55.6492 
0.000135611      6.03138      68.1986 
0.000129120      5.76347      65.3915 
0.000243805      8.94293      71.4840 
0.000374486      6.06854      68.3388 
0.000119320      5.74401      64.8626 
0.000735017      8.90501      71.4023 
0.000110674      5.70782      64.6920 
0.000474127      6.08342      67.9887 
0.000102673      5.67168      64.5193 
9.31701e-05      5.68901      64.1556 
-0.000166245      6.67892      55.7389 
0.000315415      7.22186      66.8431 
0.000503917      5.65303      63.9789 
-0.000247324      6.71202      55.9311 
0.000704755      8.09632      68.2512 
0.000147565      6.32923      67.3244 
-0.000274293      6.65649      56.0235 
0.000133397      7.16938      67.0113 
0.000367013      8.91785      71.1587 
0.000339757      6.36616      67.4632 
-0.000233773      6.68969      56.2149 
0.000172473      9.41259      74.7235 
0.000173925      2.60768      69.3411 
0.000118755      5.61712      63.7999 
5.86909e-05      4.76000      61.9275 
0.000100677      7.11697      67.1820 
-0.000248299      1.16000     -133.603 
0.000289409      4.74384      61.2739 
-0.000329601      4.30070      80.3625 
0.000149448      7.13257      66.8858 
-5.24768e-05      6.63421      56.3099 
0.000231514      5.67070      63.6157 
-0.000145778      1.96815      52.4314 
0.000273792      2.58488      68.1986 
-0.000273618      10.4739      67.5485 
-9.88313e-05      6.66753      56.5006 
0.000134415      9.44076      75.0217 
0.000136807      8.89305      70.8316 
9.43149e-05      8.13349      68.3556 
-0.000131782      6.61211      56.5983 
8.80291e-05      11.2606      70.2777 
0.000127744      8.14833      68.0941 
-8.47715e-05      1.99279      51.5198 
-4.29182e-05      7.05600      55.8595 
-4.20803e-05      11.7718      57.0659 
4.16558e-05      7.08011      67.0564 
4.14250e-05      9.35709      64.4208 
4.01617e-05      8.85528      70.7466 
-4.02968e-05      7.08915      56.0409 
-4.00985e-05     0.698570     -13.2405 
0.000257701      6.71476      68.3253 
0.000364109      5.38516      68.1986 
0.000355847      6.67760      68.1986 
0.000299592      8.12739      69.2459 
0.000286171      6.72964      68.0089 
0.000176387      5.36313      67.6431 
-7.82849e-05      9.30841      56.9245 
0.000144784      8.11330      69.5101 
-0.000114273      3.78227      72.1399 
-0.000144319      9.34195      57.0584 
-0.000137173      3.74422      71.9522 
3.40444e-05      5.40015      67.8045 
-0.000359782      4.33036      78.2749 
3.31351e-05      5.32962      73.8774 
-0.000228709      9.36376      56.8530 
-9.03363e-05      3.73202      72.5361 
3.15500e-05      5.43087      67.0231 
0.000257254      5.31865      74.2914 
-0.000120707      4.32241      78.7941 
-0.000112627      8.49075      54.5878 
7.15356e-05      7.79189      71.7511 
2.96897e-05      5.40992      66.4677 
2.75993e-05      5.42601      66.0804 
-0.000170760      3.69389      72.3499 
2.60101e-05      5.44235      65.6955 
-2.50643e-05      8.45818      54.4308 
2.47854e-05      5.45894      65.3128 
-2.46180e-05      8.59023      57.9381 
-2.36684e-05      8.35225      53.5691 
-6.83173e-05     0.544059     -17.1027 
4.65771e-05      2.45862      68.0255 
-4.53872e-05      9.41913      56.7823 
-8.12735e-05      1.60000      53.1301 
-4.41575e-05      8.56906      58.1647 
0.000220052      2.44393      68.8952 
-4.34148e-05      7.35674      55.1866 
2.24118e-05      5.47576      64.9325 
4.18294e-05      8.15608      68.7204 
-4.22446e-05      8.34400      53.1850 
7.93304e-05      6.05389      68.6907 
2.11833e-05      8.76913      69.9946 
4.12644e-05      5.49283      64.5546 
-9.68221e-05     0.572713     -12.0948 
-5.94082e-05      9.44110      56.5792 
-7.88416e-05      3.65579      72.1598 
4.01529e-05      11.1989      69.9470 
-1.99486e-05      8.54803      58.3925 
-3.78922e-05      7.38961      55.3637 
5.71725e-05      12.3616      62.8545 
-5.56943e-05      10.3250      59.7595 
1.87536e-05      8.88576      69.4440 
-1.88286e-05      7.33398      55.4432 
1.84930e-05      5.51014      64.1790 
1.84501e-05      11.2127      69.7550 
-1.85353e-05      8.56131      58.7608 
-1.82140e-05      8.31202      53.0198 
-1.81319e-05      3.66824      71.5651 
1.76906e-05      8.89989      69.2028 
-8.86608e-05      8.83203      53.2858 
6.55964e-05      7.14927      70.0443 
-3.84950e-05     0.843801     -84.5597 
4.61926e-05      7.11168      69.9343 
-3.98077e-05      8.86413      53.4404 
-5.76494e-05     0.803990     -84.2894 
0.000117883      7.07412      69.8231 
-3.73684e-05      8.89629      53.5938 
9.17157e-05      6.01132      69.7563 
-1.77292e-05      8.92852      53.7462 
9.50342e-05      12.5757      63.3534 
-1.72549e-05      8.96080      53.8974 
-1.67604e-05      9.23472      54.5200 
-0.000107807     0.923472     -85.0303 
-1.62667e-05      8.60000      53.1301 
-1.57149e-05      9.33270      54.9476 
-1.53114e-05      9.36547      55.0882 
-1.48947e-05      8.48009      52.8598 
-2.88493e-05      9.46412      55.5039 
-1.44803e-05     0.533667     -77.0054 
-1.38678e-05      8.42406      52.9125 
9.36815e-05      6.02528      69.3994 
9.52034e-05      12.5936      63.1908 
-1.36223e-05      9.53016      55.7763 
-1.31928e-05      8.36803      52.9658 
-1.32173e-05     0.430813     -68.1986 
-2.56418e-05      9.59642      56.0450 
-1.22341e-05      8.33614      52.8002 
-1.20338e-05      9.66288      56.3099 
-2.28709e-05      8.28010      52.8533 
-1.15729e-05      9.69618      56.4410 
-1.15365e-05     0.344093     -54.4623 
-1.10176e-05      9.72954      56.5713 
3.16030e-05      4.70744      49.1347 
-2.14025e-05      4.00000      73.7398 
-2.10002e-05      9.70756      56.7683 
-3.08471e-05      4.03842      73.8987 
-1.05426e-05      8.24825      52.6855 
-1.00849e-05     0.288444     -33.6901 
-1.01252e-05      9.74105      56.8972 
1.01622e-05      7.22451      70.2608 
-0.000187721      18.8614     -166.759 
9.95453e-05      3.84832     -43.3153 
-6.55235e-05      8.23650     -65.9245 
-6.35017e-05      22.8527     -120.155 
9.04054e-05      19.2983     -69.8748 
-6.22086e-05      11.3067     -152.619 
-6.11472e-05      15.5542      112.212 
5.95546e-05      18.0944     -61.6220 
-0.000112835      12.6999     -45.3828 
-5.82567e-05      8.22027     -66.1791 
8.31012e-05      3.81932     -43.7270 
5.62891e-05      15.2717     -104.873 
-8.23423e-05      6.75846      96.1155 
-8.36193e-05      15.9108      28.3690 
5.76285e-05      20.1125      18.7953 
5.61073e-05      13.0812     -111.151 
-0.000107877      22.7981     -120.119 
5.56330e-05      4.50440      41.7603 
8.20436e-05      11.3617     -6.87482 
-5.51299e-05      6.26929      111.326 
-5.52034e-05      8.52713     -78.6374 
0.000107022      22.0412     -155.900 
-8.00897e-05      8.52404     -29.2113 
-5.45129e-05      11.2884     -152.799 
-7.92568e-05      15.5913      112.156 
7.91934e-05      26.0840     -129.524 
5.37466e-05      14.1297     -71.0008 
-2.72401e-05      24.8042     -139.709 
2.71493e-05      15.9996     -21.5620 
-5.24252e-05      19.5141      158.853 
2.71614e-05      10.1201     -179.774 
-5.21042e-05      22.1992     -33.8332 
-2.70204e-05      13.5992      29.8076 
5.24859e-05      14.0421     -179.021 
5.24911e-05      20.0404     -90.3431 
2.66804e-05      9.39413      4.88520 
2.63947e-05      20.0996      18.6874 
2.62812e-05      2.09609     -41.9059 
-2.62349e-05      16.6969      33.2713 
2.60505e-05      25.1440      53.1483 
-2.59054e-05      14.6769      4.06337 
-2.57163e-05      8.25688     -66.2912 
-2.56088e-05      26.0302     -138.052 
2.55504e-05      20.8458     -108.574 
2.55027e-05      18.1134     -61.5107 
-2.53659e-05      16.4086      37.3727 
-2.52105e-05      21.9900     -150.824 
-2.49691e-05      13.5645      29.8916 
2.49350e-05      10.1200      180.000 
-2.48056e-05      12.7284     -45.5093 
